Jaz Data File
++++++++++++++++++++++++++++++++++++
Date: Mon Aug 29 16:23:13 2011
User: jaz
Dark Spectrum Present: Yes
Reference Spectrum Present: Yes
Processed Spectrum Present: Yes
Spectrometers: JAZA1479
Integration Time (usec): 24000 (JAZA1479)
Spectra Averaged: 1 (JAZA1479)
Boxcar Smoothing: 0 (JAZA1479)
Correct for Electrical Dark: No (JAZA1479)
Strobe/Lamp Enabled: Yes (JAZA1479)
Correct for Detector Non-linearity: No (JAZA1479)
Correct for Stray Light: No (JAZA1479)
Number of Pixels in Processed Spectrum: 2048
>>>>>Begin Processed Spectral Data<<<<<
W	D	R	S	P
190.853500	0.000000	0.000000	0.000000	0.000000
191.231918	0.000000	0.000000	0.000000	0.000000
191.610306	1078.986938	1156.224609	1064.943726	-18.181818
191.988663	1181.970459	1184.311035	1062.603149	-5099.911133
192.366974	1149.203003	1165.586792	1074.305908	-457.141479
192.745285	1151.543579	1179.630005	1116.435547	-125.000000
193.123550	1226.440674	1149.203003	1151.543579	96.969643
193.501785	1167.927246	1121.116577	1109.413940	124.999931
193.880005	1188.992065	1165.586792	1086.008545	440.001343
194.258179	1163.246216	1163.246216	1160.905640	0.000000
194.636322	1219.419067	1233.462280	1174.948853	-316.666962
195.014435	1196.013672	1212.397461	1151.543579	-271.427399
195.392532	1200.694824	1221.759644	1174.948853	-122.222610
195.770584	1163.246216	1259.208130	1149.203003	-14.634152
196.148621	1210.056885	1212.397461	1149.203003	-2599.953125
196.526627	1170.267822	1235.802856	1128.138184	-64.285675
196.904572	1212.397461	1261.548706	1207.716431	-9.523726
197.282516	1196.013672	1226.440674	1128.138184	-223.076492
197.660416	1207.716431	1214.738037	1095.370728	-1600.000000
198.038300	1212.397461	1177.289429	1158.565186	153.333221
198.416153	1228.781250	1210.056885	1186.651611	224.999023
198.793976	1163.246216	1210.056885	1177.289429	30.000027
199.171768	1163.246216	1188.992065	1139.840820	-90.909393
199.549515	1167.927246	1139.840820	1184.311035	-58.333477
199.927246	1170.267822	1231.121704	1139.840820	-50.000099
200.304932	1184.311035	1217.078491	1212.397461	85.714394
200.682617	1172.608398	1291.975708	1179.630005	5.882353
201.060242	1151.543579	1275.591919	1104.732788	-37.735928
201.437851	1163.246216	1240.483887	1149.203003	-18.181818
201.815445	1179.630005	1296.656738	1135.159790	-38.000050
202.192993	1254.527100	1231.121704	1198.354248	239.999588
202.570496	1217.078491	1273.251343	1191.332642	-45.833260
202.947983	1203.035278	1317.721558	1156.224609	-40.816277
203.325439	1245.164917	1345.807983	1163.246216	-81.395279
203.702866	1156.224609	1284.954102	1181.970459	19.999962
204.080276	1100.051758	1249.846069	1109.413940	6.250025
204.457642	1132.819214	1313.040527	1172.608398	22.077957
204.834991	1177.289429	1291.975708	1107.073364	-61.224468
205.212280	1177.289429	1256.867676	1111.754395	-82.352951
205.589539	1212.397461	1291.975708	1146.862427	-82.352951
205.966797	1196.013672	1301.337769	1137.500366	-55.555477
206.344009	1163.246216	1287.294556	1116.435547	-37.735828
206.721207	1212.397461	1268.570313	1198.354248	-25.000000
207.098373	1198.354248	1380.916016	1153.884033	-24.358997
207.475479	1156.224609	1247.505493	1221.759644	71.794914
207.852570	1144.521973	1294.316162	1153.884033	6.249949
208.229645	1191.332642	1249.846069	1142.181396	-83.999939
208.606674	1149.203003	1324.743164	1135.159790	-8.000000
208.983688	1210.056885	1291.975708	1139.840820	-85.714203
209.360657	1107.073364	1284.954102	1177.289429	39.473675
209.737610	1156.224609	1266.229736	1111.754395	-40.425583
210.114502	1231.121704	1327.083740	1186.651611	-46.341339
210.491394	1125.797607	1345.807983	1100.051758	-11.702107
210.868240	1144.521973	1289.635132	1107.073364	-25.806486
211.245071	1137.500366	1306.018921	1158.565186	12.500000
211.621872	1191.332642	1308.359375	1153.884033	-32.000046
211.998627	1207.716431	1291.975708	1170.267822	-44.444492
212.375351	1228.781250	1397.299805	1181.970459	-27.777826
212.752045	1217.078491	1282.613525	1191.332642	-39.285629
213.128723	1121.116577	1263.889282	1198.354248	54.098347
213.505356	1273.251343	1329.424194	1116.435547	-279.166534
213.881973	1184.311035	1334.105347	1153.884033	-20.312521
214.258560	1158.565186	1392.618652	1160.905640	0.999966
214.635101	1160.905640	1259.208130	1165.586792	4.761988
215.011627	1156.224609	1301.337769	1153.884033	-1.612932
215.388092	1153.884033	1322.402588	1165.586792	6.944493
215.764542	1163.246216	1383.256592	1158.565186	-2.127641
216.140991	1125.797607	1277.932495	1135.159790	6.153870
216.517380	1200.694824	1376.234985	1181.970459	-10.666713
216.893738	1132.819214	1327.083740	1207.716431	38.554241
217.270081	1167.927246	1390.278198	1188.992065	9.473680
217.646378	1170.267822	1380.916016	1086.008545	-40.000000
218.022644	1165.586792	1303.678345	1165.586792	0.000000
218.398880	1132.819214	1324.743164	1114.094971	-9.756074
218.775101	1186.651611	1350.489014	1217.078491	18.571388
219.151291	1163.246216	1371.553833	1142.181396	-10.112362
219.527435	1153.884033	1411.343018	1130.478760	-9.090875
219.903564	1149.203003	1364.532227	1130.478760	-8.695635
220.279648	1095.370728	1418.364624	1165.586792	21.739130
220.655701	1193.673218	1465.175293	1163.246216	-11.206913
221.031738	1165.586792	1420.705078	1226.440674	23.853203
221.407730	1235.802856	1448.791504	1130.478760	-49.450569
221.783707	1153.884033	1572.839966	1135.159790	-4.469263
222.159637	1203.035278	1570.499390	1158.565186	-12.101888
222.535538	1203.035278	1610.288574	1210.056885	1.724137
222.911423	1212.397461	1589.223755	1221.759644	2.484482
223.287247	1167.927246	1640.715454	1233.462280	13.861394
223.663071	1172.608398	1593.904785	1233.462280	14.444435
224.038849	1158.565186	1668.801880	1233.462280	14.678892
224.414597	1179.630005	1640.715454	1151.543579	-6.091371
224.790329	1191.332642	1715.612671	1198.354248	1.339285
225.166016	1163.246216	1708.591064	1212.397461	9.012875
225.541687	1151.543579	1851.363647	1207.716431	8.026756
225.917282	1193.673218	1837.320435	1284.954102	14.181819
226.292892	1163.246216	1980.093140	1284.954102	14.899717
226.668457	1186.651611	1996.476929	1231.121704	5.491319
227.043991	1184.311035	2106.482178	1233.462280	5.329948
227.419510	1207.716431	2282.022217	1322.402588	10.675374
227.794983	1181.970459	2431.816650	1303.678345	9.737829
228.170425	1163.246216	2684.594482	1350.489014	12.307688
228.545807	1167.927246	3030.993652	1416.024048	13.316584
228.921204	1188.992065	3447.608887	1423.045654	10.362697
229.296555	1170.267822	3925.078369	1600.926392	15.632965
229.671875	1221.759644	4519.574219	1528.369751	9.297373
230.047165	1174.948853	4629.579590	1624.331787	13.008132
230.422409	1067.284302	4669.368652	1631.353394	15.659518
230.797653	1174.948853	4379.142090	1549.434570	11.687364
231.172836	1128.138184	4117.001953	1514.326538	12.920909
231.547989	1153.884033	3850.181152	1423.045654	9.982639
231.923141	1252.186523	3452.290039	1387.937622	6.170214
232.298233	1146.862427	3480.376465	1423.045654	11.835506
232.673309	1207.716431	3337.603760	1411.343018	9.560440
233.048340	1149.203003	3309.517334	1357.510620	9.642467
233.423370	1188.992065	3077.804443	1409.002441	11.648080
233.798325	1177.289429	2988.864014	1364.532227	10.335915
234.173279	1179.630005	2988.864014	1413.683472	12.936605
234.548203	1207.716431	3119.934082	1336.445801	6.731941
234.923080	1074.305908	3220.577148	1378.575439	14.176658
235.297928	1142.181396	3314.198486	1371.553833	10.560342
235.672745	1224.100098	3330.582275	1366.872803	6.777779
236.047562	1207.716431	3311.857910	1315.380981	5.116792
236.422302	1198.354248	3131.636719	1404.321411	10.653754
236.797028	1165.586792	3157.382568	1387.937622	11.163335
237.171738	1203.035278	3372.711914	1420.705078	10.032361
237.546402	1142.181396	3379.733398	1385.597046	10.878659
237.921036	1130.478760	3246.322998	1369.213379	11.283185
238.295624	1177.289429	3234.620361	1413.683472	11.490326
238.670212	1200.694824	3283.771484	1420.705078	10.561793
239.044739	1160.905640	3295.474121	1350.489014	8.881579
239.419250	1219.419067	3330.582275	1394.959229	8.314856
239.793732	1188.992065	3452.290039	1401.980835	9.410550
240.168182	1146.862427	3632.511230	1373.894409	9.133711
240.542603	1153.884033	3676.981445	1345.807983	7.606680
240.916977	1102.392334	3936.781006	1472.196899	13.047066
241.291321	1254.527100	4100.618652	1476.877930	7.812498
241.665649	1228.781250	4770.011719	1568.158936	9.583609
242.039948	1167.927246	5212.373047	1624.331787	11.284724
242.414200	1205.375854	5804.528320	1694.547852	10.636134
242.788437	1184.311035	6422.429688	1776.466553	11.304737
243.162628	1263.889282	6932.666504	1706.250488	7.803468
243.536789	1188.992065	6974.796387	1818.596191	10.881878
243.910919	1135.159790	6792.234375	1724.974731	10.426147
244.285034	1207.716431	6427.110840	1582.202148	7.174888
244.659103	1151.543579	6015.176758	1647.737061	10.202115
245.033142	1076.646362	5591.539551	1629.012817	12.234320
245.407150	1245.164917	5425.361816	1570.499390	7.782755
245.781128	1125.797607	5329.399414	1617.310181	11.692654
246.155060	1198.354248	5687.501465	1666.461426	10.427529
246.528976	1174.948853	6338.170410	1696.888306	10.108794
246.902863	1203.035278	7396.092773	1825.617798	10.052910
247.276703	1210.056885	8561.679688	1872.428467	9.009869
247.650543	1165.586792	9348.099609	2172.017090	12.299770
248.024323	1170.267822	9954.297852	2160.314453	11.270984
248.398087	1231.121704	10015.152344	2106.482178	9.965363
248.771790	1158.565186	9863.017578	2155.633301	11.454691
249.145493	1219.419067	8989.997070	2010.520142	10.180723
249.519165	1179.630005	7672.275879	1914.558105	11.319393
249.892776	1109.413940	6995.860840	1668.801880	9.502981
250.266388	1219.419067	6270.294922	1715.612671	9.823912
250.639954	1226.440674	5647.712402	1626.672241	9.052409
251.013489	1139.840820	5472.172363	1572.839966	9.994598
251.386978	1174.948853	5263.864746	1605.607422	10.532341
251.760468	1198.354248	5317.696777	1547.094116	8.465910
252.133896	1231.121704	5458.128906	1617.310181	9.136215
252.507309	1116.435547	5626.647461	1685.185669	12.610275
252.880692	1151.543579	5640.690918	1687.526245	11.939520
253.254028	1135.159790	5902.831055	1750.720703	12.911144
253.627350	1261.548706	5657.074707	1610.288574	7.933974
254.000610	1200.694824	5572.815430	1617.310181	9.528908
254.373871	1238.143311	5163.221680	1619.650635	9.719738
254.747086	1109.413940	4819.163086	1495.602295	10.410094
255.120285	1146.862427	4564.044434	1488.580688	10.000001
255.493439	1165.586792	4493.828613	1521.348145	10.689168
255.866531	1083.667969	4500.850098	1458.153687	10.958904
256.239655	1212.397461	4533.617676	1514.326538	9.090908
256.612701	1158.565186	4587.449707	1458.153687	8.737200
256.985718	1174.948853	4676.390137	1558.796753	10.962568
257.358704	1181.970459	4931.508789	1547.094116	9.737830
257.731689	1149.203003	5188.967285	1558.796753	10.139051
258.104614	1165.586792	5476.853516	1577.520996	9.554831
258.477509	1210.056885	5596.220703	1607.947998	9.071506
258.850403	1158.565186	6176.673340	1673.483032	10.261194
259.223206	1165.586792	6647.121094	1755.401733	10.760034
259.596039	1160.905640	7449.924805	1804.552979	10.234463
259.968811	1191.332642	8933.824219	1935.622925	9.613059
260.341522	1118.776001	9799.822266	2026.903809	10.461041
260.714233	1226.440674	10637.734375	2085.417236	9.127083
261.086914	1177.289429	10820.295898	2162.655029	10.218448
261.459564	1163.246216	10546.453125	2155.633301	10.576203
261.832184	1137.500366	9928.551758	1975.412109	9.531416
262.204742	1188.992065	8500.825195	1858.385254	9.154930
262.577301	1207.716431	7630.145996	1825.617798	9.620991
262.949829	1177.289429	7129.271484	1818.596191	10.774676
263.322296	1179.630005	6738.402344	1743.699097	10.147367
263.694763	1179.630005	6478.602539	1708.591064	9.982332
264.067200	1163.246216	6087.733398	1621.991211	9.315589
264.439575	1193.673218	6061.987305	1675.823486	9.903845
264.811951	1277.932495	5919.214844	1612.629028	7.211295
265.184265	1210.056885	5872.403809	1593.904785	8.232933
265.556519	1221.759644	5631.328613	1572.839966	7.961783
265.928833	1207.716431	5912.192871	1731.996338	11.144278
266.301025	1123.457153	6015.176758	1598.585815	9.712916
266.673248	1200.694824	6396.684082	1626.672241	8.198196
267.045380	1233.462280	6609.672852	1668.801880	8.097518
267.417511	1153.884033	6913.942383	1783.488159	10.930516
267.789612	1186.651611	7005.223145	1685.185669	8.567981
268.161713	1165.586792	7199.487793	1771.785522	10.046548
268.533722	1228.781250	7040.331055	1746.039551	8.900522
268.905731	1139.840820	7070.758301	1774.125977	10.694553
269.277740	1224.100098	7005.223145	1757.742310	9.230771
269.649628	1116.435547	6998.201660	1769.444946	11.102267
270.021576	1249.846069	7098.844727	1678.164063	7.322929
270.393433	1160.905640	7009.904297	1799.871948	10.924371
270.765228	1240.483887	7351.622559	1713.272095	7.736499
271.137085	1170.267822	7510.778809	1724.974731	8.748615
271.508850	1170.267822	8037.399414	1921.579712	10.940694
271.880615	1198.354248	8910.418945	1886.471680	8.922610
272.252319	1153.884033	9432.358398	2050.309326	10.828387
272.623993	1270.910889	9380.867188	1968.390503	8.600288
272.995636	1165.586792	9427.677734	2043.287598	10.623229
273.367279	1160.905640	9085.958984	1919.239258	9.568814
273.738831	1207.716431	8737.219727	1886.471680	9.014608
274.110382	1137.500366	8662.322266	1872.428467	9.766718
274.481903	1156.224609	8315.922852	1944.985107	11.016672
274.853394	1172.608398	8049.102051	1907.536499	10.687541
275.224854	1053.241089	7763.556641	1898.174438	12.591559
275.596283	1153.884033	7588.016602	1706.250488	8.584940
275.967651	1137.500366	7475.670898	1797.531372	10.413589
276.339020	1254.527100	7838.454102	1858.385254	9.171702
276.710358	1132.819214	8039.739746	1797.531372	9.623857
277.081665	1179.630005	8163.788086	1865.406860	9.819034
277.452911	1149.203003	8430.609375	1860.725830	9.771778
277.824097	1146.862427	8351.031250	1849.023193	9.746590
278.195313	1167.927246	8313.583008	1891.152832	10.121193
278.566498	1160.905640	8147.404785	1961.368896	11.457287
278.937622	1263.889282	7957.821289	1865.406860	8.986012
279.308685	1198.354248	8035.059082	1804.552979	8.866826
279.679810	1121.116577	8023.355957	1839.661011	10.410309
280.050812	1088.349121	7784.621582	1804.552979	10.695560
280.421814	1179.630005	8105.274902	1937.963501	10.949644
280.792786	1172.608398	8203.577148	1940.304077	10.918776
281.163696	1256.867676	8552.317383	1998.817383	10.170033
281.534637	1233.462280	9088.299805	2033.925415	10.190702
281.905487	1163.246216	8992.337891	2017.541748	10.911809
282.276337	1107.073364	9558.747070	2139.249512	12.212683
282.647125	1160.905640	10064.303711	2172.017090	11.356466
283.017883	1139.840820	10209.416016	2239.892578	12.129033
283.388641	1200.694824	10076.005859	2092.438965	10.047470
283.759338	1254.527100	10136.859375	2125.206299	9.802372
284.130005	1118.776001	9678.115234	2045.628174	10.828548
284.500641	1118.776001	9724.925781	2106.482178	11.476749
284.871246	1153.884033	9855.995117	2113.503662	11.027434
285.241821	1226.440674	9907.487305	2087.757813	9.921812
285.612396	1118.776001	10209.416016	2113.503662	10.942328
285.982910	1219.419067	10307.718750	2197.762939	10.764873
286.353363	1172.608398	10729.015625	2228.189941	11.045799
286.723816	1160.905640	10822.636719	2179.038574	10.537789
287.094208	1125.797607	11063.711914	2277.341064	11.587376
287.464600	1174.948853	10902.214844	2251.595215	11.068336
287.834961	1121.116577	10637.734375	2298.406006	12.370880
288.205261	1071.965332	10537.091797	2197.762939	11.894163
288.575562	1121.116577	9951.958008	2129.887451	11.423269
288.945801	1177.289429	9827.909180	2202.444092	11.850650
289.316010	1144.521973	9521.298828	2122.865723	11.679238
289.686188	1184.311035	9729.606445	2125.206299	11.010682
290.056335	1224.100098	9884.082031	2174.357666	10.972974
290.426453	1137.500366	10083.027344	2202.444092	11.904762
290.796570	1170.267822	10696.248047	2296.065430	11.818181
291.166595	1207.716431	10874.128906	2251.595215	10.799030
291.536591	1167.927246	10782.847656	2328.833008	12.074003
291.906586	1158.565186	10979.453125	2267.979004	11.296472
292.276520	1146.862427	10471.556641	2186.060303	11.144578
292.646484	1156.224609	10621.350586	2270.319580	11.770524
293.016357	1172.608398	9944.935547	2242.233154	12.193170
293.386200	1207.716431	9870.039063	2246.914307	11.996758
293.756012	1193.673218	10052.600586	2216.487305	11.545574
294.125824	1212.397461	9886.422852	2237.552002	11.818671
294.495575	1191.332642	10373.253906	2298.406006	12.057099
294.865265	1170.267822	10686.885742	2333.513916	12.223313
295.234955	1212.397461	11162.014648	2466.924561	12.608798
295.604614	1233.462280	11183.079102	2363.940918	11.362032
295.974243	1200.694824	11316.490234	2492.670410	12.771864
296.343842	1179.630005	11452.241211	2429.476074	12.166780
296.713379	1224.100098	11782.256836	2546.502686	12.524939
297.082947	1188.992065	12018.650391	2541.821777	12.491897
297.452393	1207.716431	12257.384766	2597.994629	12.582081
297.821869	1179.630005	12540.589844	2595.654053	12.463947
298.191284	1156.224609	12381.433594	2597.994629	12.844037
298.560669	1118.776001	12280.790039	2658.848389	13.797442
298.930054	1203.035278	12262.066406	2539.481201	12.084657
299.299347	1210.056885	11485.008789	2607.356689	13.599089
299.668671	1146.862427	11143.290039	2534.800049	13.884336
300.037903	1170.267822	10888.171875	2509.054199	13.776493
300.407104	1167.927246	10370.913086	2420.113770	13.606306
300.776337	1179.630005	10286.654297	2445.859863	13.903881
301.145508	1132.819214	10092.389648	2260.957520	12.591434
301.514587	1153.884033	10045.579102	2314.789795	13.056067
301.883698	1146.862427	9865.357422	2246.914307	12.617452
302.252777	1181.970459	9668.752930	2277.341064	12.906783
302.621796	1130.478760	9802.163086	2312.449219	13.630229
302.990784	1142.181396	9715.563477	2251.595215	12.940212
303.359741	1160.905640	9614.920898	2237.552002	12.735325
303.728668	1156.224609	9200.645508	2195.422363	12.918242
304.097565	1210.056885	9057.873047	2235.211426	13.062927
304.466431	1207.716431	8905.738281	2225.849365	13.225904
304.835266	1156.224609	8872.970703	2211.806152	13.679102
305.204041	1198.354248	8685.727539	2216.487305	13.598001
305.572784	1109.413940	8985.316406	2270.319580	14.739970
305.941528	1125.797607	8795.733398	2256.276367	14.739091
306.310211	1181.970459	8540.614258	2179.038574	13.549619
306.678864	1219.419067	8786.371094	2179.038574	12.681718
307.047485	1142.181396	8758.284180	2204.784668	13.952061
307.416077	1125.797607	8486.782227	2216.487305	14.817172
307.784668	1151.543579	8568.701172	2277.341064	15.178287
308.153198	1210.056885	8601.468750	2181.379150	13.141228
308.521667	1109.413940	8821.478516	2221.168213	14.415780
308.890106	1151.543579	9130.429688	2221.168213	13.405688
309.258575	1263.889282	9263.839844	2317.130371	13.165595
309.626923	1184.311035	9628.963867	2296.065430	13.165189
309.995300	1212.397461	9359.801758	2387.346436	14.421144
310.363617	1160.905640	9685.136719	2338.195068	13.811091
310.731903	1186.651611	9767.055664	2394.367920	14.075284
311.100159	1170.267822	9755.352539	2258.616943	12.677209
311.468384	1196.013672	9554.066406	2392.027344	14.309717
311.836578	1214.738037	9668.752930	2328.833008	13.178295
312.204742	1158.565186	9919.190430	2356.919434	13.678867
312.572845	1247.505493	9891.103516	2340.535645	12.645546
312.940948	1177.289429	9591.514648	2328.833008	13.685675
313.309021	1153.884033	9198.304688	2244.573730	13.558337
313.677032	1174.948853	9095.321289	2242.233154	13.475178
314.045013	1238.143311	9032.126953	2188.400879	12.192194
314.412964	1188.992065	8683.387695	2239.892578	14.022486
314.780884	1158.565186	9057.873047	2258.616943	13.925926
315.148804	1144.521973	9303.628906	2331.173584	14.543891
315.516632	1174.948853	9476.829102	2408.411133	14.857626
315.884430	1142.181396	9153.834961	2317.130371	14.665500
316.252258	1165.586792	8957.229492	2249.254639	13.908079
316.619995	1177.289429	8437.630859	2134.568604	13.185043
316.987732	1135.159790	8414.225586	2267.979004	15.562700
317.355377	1156.224609	8196.555664	2216.487305	15.059841
317.723022	1184.311035	7971.864258	2108.822510	13.620688
318.090668	1184.311035	7831.432129	2143.930664	14.436621
318.458282	1210.056885	7815.048340	2040.947021	12.579731
318.825806	1125.797607	7913.351074	2162.655029	15.275864
319.193329	1177.289429	7691.000000	2169.676514	15.235357
319.560791	1207.716431	7936.756348	2118.184814	13.530435
319.928253	1135.159790	7896.967285	2083.076660	14.018690
320.295685	1207.716431	7775.259277	2090.098389	13.435495
320.663055	1238.143311	8030.377930	2139.249512	13.266712
321.030396	1165.586792	7669.935059	2136.908936	14.933428
321.397736	1078.986938	7772.918945	2047.968628	14.475523
321.765015	1205.375854	7524.822266	2143.930664	14.851852
322.132263	1149.203003	7634.827148	2125.206299	15.048718
322.499481	1174.948853	7702.702637	2033.925415	13.158838
322.866638	1165.586792	7583.335449	2136.908936	15.134936
323.233795	1221.759644	8011.653320	2090.098389	12.788694
323.600891	1144.521973	8205.917969	2176.698242	14.617170
323.967987	1158.565186	8428.268555	2216.487305	14.552481
324.335022	1219.419067	8816.797852	2256.276367	13.647566
324.701996	1203.035278	9153.834961	2305.427490	13.865173
325.069000	1137.500366	9359.801758	2282.022217	13.919725
325.435944	1198.354248	9486.191406	2188.400879	11.945779
325.802856	1130.478760	9018.083984	2239.892578	14.065280
326.169708	1210.056885	8975.954102	2230.530518	13.140447
326.536560	1137.500366	9015.743164	2267.979004	14.349376
326.903412	1231.121704	9020.424805	2345.216797	14.302885
327.270142	1170.267822	8961.911133	2242.233154	13.757885
327.636871	1151.543579	8734.878906	2265.638428	14.691357
328.003540	1177.289429	8545.295898	2284.362793	15.025413
328.370239	1158.565186	8414.225586	2155.633301	13.741935
328.736908	1212.397461	8360.393555	2141.590088	12.999345
329.103485	1167.927246	8390.820313	2202.444092	14.322749
329.470062	1109.413940	8032.718262	2073.714600	13.928330
329.836578	1156.224609	8058.464355	2209.465576	15.259409
330.203064	1167.927246	8067.826172	2169.676514	14.518318
330.569580	1198.354248	7974.205078	2094.779297	13.229705
330.936005	1160.905640	7758.875488	2097.119873	14.189429
331.302368	1167.927246	7962.502441	2204.784668	15.260077
331.668732	1165.586792	8145.063965	1998.817383	11.938295
332.035065	1160.905640	8044.420898	2122.865723	13.974838
332.401367	1219.419067	7896.967285	2143.930664	13.845076
332.767609	1167.927246	8182.512695	2172.017090	14.314315
333.133850	1193.673218	8332.306641	2101.801025	12.721312
333.500061	1135.159790	8638.916992	2141.590088	13.412352
333.866211	1132.819214	8622.533203	2160.314453	13.718752
334.232330	1160.905640	8851.906250	2162.655029	13.024956
334.598419	1107.073364	8994.678711	2253.935791	14.540058
334.964447	1165.586792	8807.435547	2078.395752	11.944871
335.330475	1123.457153	8695.089844	2038.606567	12.086553
335.696472	1144.521973	8556.998047	2197.762939	14.209030
336.062408	1144.521973	8608.490234	2200.103516	14.142364
336.428314	1212.397461	8414.225586	2108.822510	12.447187
336.794220	1116.435547	8468.057617	2146.271240	14.008279
337.160034	1181.970459	8306.560547	2132.228027	13.337716
337.525909	1146.862427	8475.079102	2083.076660	12.775472
337.891663	1144.521973	8365.074219	2132.228027	13.679093
338.257385	1186.651611	8688.068359	2232.871094	13.946959
338.623108	1252.186523	8528.912109	2106.482178	11.740111
338.988831	1135.159790	8610.831055	2216.487305	14.464621
339.354431	1198.354248	8627.214844	2204.784668	13.547575
339.720032	1097.711182	8652.959961	2148.611816	13.909543
340.085602	1196.013672	8418.906250	2125.206299	12.864550
340.451141	1188.992065	8329.966797	2125.206299	13.110455
340.816650	1130.478760	8404.863281	2050.309326	12.644789
341.182129	1205.375854	8138.042480	2050.309326	12.187713
341.547546	1116.435547	8318.263672	2118.184814	13.909653
341.912964	1224.100098	8414.225586	2223.508789	13.899739
342.278320	1181.970459	8489.123047	2118.184814	12.812301
342.643677	1235.802856	8463.376953	2099.460449	11.949481
343.008942	1139.840820	8582.744141	2157.973877	13.679246
343.374207	1186.651611	8638.916992	2101.801025	12.280150
343.739471	1163.246216	8559.338867	2087.757813	12.500000
344.104645	1132.819214	8676.365234	2136.908936	13.310580
344.469818	1207.716431	8940.845703	2125.206299	11.864406
344.834930	1158.565186	9430.018555	2172.017090	12.252404
345.199982	1238.143311	9355.121094	2115.844238	10.813149
345.565063	1116.435547	9666.412109	2172.017090	12.346017
345.930115	1149.203003	9841.952148	2267.979004	12.870221
346.295074	1132.819214	9607.898438	2230.530518	12.952225
346.660004	1139.840820	9598.537109	2251.595215	13.143331
347.024902	1196.013672	9699.179688	2150.952148	11.230388
347.389801	1196.013672	9331.715820	2052.649658	10.529343
347.754669	1181.970459	9394.910156	2176.698242	12.111714
348.119476	1191.332642	9233.413086	2207.125000	12.630964
348.484253	1174.948853	8889.354492	2181.379150	13.046116
348.848999	1156.224609	8538.274414	2120.525391	13.062778
349.213745	1172.608398	8528.912109	2083.076660	12.376708
349.578400	1210.056885	8730.198242	2054.990234	11.235604
349.943024	1198.354248	8493.803711	2108.822510	12.479948
350.307617	1116.435547	8793.392578	2146.271240	13.414634
350.672180	1158.565186	8795.733398	2258.616943	14.403922
351.036743	1207.716431	8924.461914	2090.098389	11.434638
351.401215	1158.565186	8968.932617	2134.568604	12.496255
351.765686	1172.608398	9132.770508	2172.017090	12.555130
352.130127	1128.138184	9163.197266	2033.925415	11.272938
352.494507	1149.203003	9085.958984	2186.060303	13.063993
352.858887	1214.738037	9032.126953	2071.374023	10.958083
353.223206	1170.267822	9170.218750	2228.189941	13.224107
353.587494	1149.203003	9294.266602	2136.908936	12.126436
353.951752	1181.970459	9547.044922	2186.060303	12.003359
354.315979	1174.948853	9937.914063	2214.146729	11.858975
354.680176	1207.716431	10139.200195	2256.276367	11.740043
355.044312	1212.397461	10094.730469	2263.297852	11.831355
355.408386	1177.289429	10431.767578	2237.552002	11.456751
355.772522	1231.121704	10321.761719	2223.508789	10.916581
356.136566	1196.013672	10766.463867	2396.708496	12.545856
356.500580	1174.948853	10726.674805	2359.260010	12.398924
356.864532	1191.332642	11019.242188	2375.643555	12.050487
357.228455	1224.100098	11241.592773	2380.324707	11.542056
357.592377	1207.716431	11716.721680	2392.027344	11.269486
357.956268	1198.354248	12505.481445	2583.951416	12.254193
358.320068	1228.781250	13149.128906	2499.692139	10.661694
358.683868	1160.905640	13060.188477	2588.632324	11.998425
359.047668	1196.013672	12940.821289	2527.778564	11.339180
359.411377	1214.738037	12287.812500	2385.005859	10.568590
359.775085	1200.694824	11941.413086	2459.903076	11.723687
360.138763	1137.500366	12149.720703	2495.010986	12.327311
360.502380	1188.992065	12360.369141	2487.989502	11.627908
360.865967	1149.203003	12400.158203	2455.221924	11.608071
361.229523	1184.311035	13219.345703	2597.994629	11.746402
361.593048	1137.500366	13743.625000	2651.826904	12.012625
361.956512	1191.332642	14705.584961	2808.642822	11.967442
362.319977	1153.884033	15814.999023	2967.799072	12.372286
362.683411	1128.138184	16486.732422	2906.945313	11.581836
363.046814	1165.586792	16039.690430	2925.669434	11.833201
363.410095	1181.970459	15264.973633	2846.091309	11.816520
363.773407	1139.840820	13891.079102	2736.086182	12.518355
364.136688	1093.030151	12868.264648	2553.524414	12.403101
364.499908	1149.203003	12446.968750	2546.502686	12.367929
364.863159	1158.565186	11712.040039	2487.989502	12.597030
365.226318	1151.543579	11302.446289	2380.324707	12.105142
365.589447	1149.203003	10855.404297	2242.233154	11.261153
365.952545	1088.349121	10881.150391	2317.130371	12.547802
366.315613	1212.397461	10576.880859	2291.384277	11.522118
366.678619	1142.181396	10307.718750	2296.065430	12.589377
367.041595	1135.159790	10576.880859	2326.492432	12.617749
367.404572	1186.651611	10436.448242	2289.043945	11.918016
367.767517	1139.840820	10389.637695	2164.995361	11.082995
368.130402	1179.630005	10263.249023	2300.746582	12.342179
368.493225	1184.311035	10094.730469	2150.952148	10.848435
368.856049	1123.457153	9966.000977	2186.060303	12.016939
369.218842	1210.056885	9902.806641	2204.784668	11.443189
369.581573	1163.246216	9720.244141	2143.930664	11.460613
369.944305	1200.694824	9472.147461	2193.081787	11.997734
370.306946	1146.862427	9547.044922	2167.335938	12.148230
370.669586	1200.694824	9530.661133	2223.508789	12.278728
371.032196	1163.246216	9715.563477	2232.871094	12.506843
371.394806	1207.716431	9785.779297	2129.887451	10.750341
371.757294	1214.738037	10190.692383	2260.957520	11.655803
372.119812	1228.781250	10155.583984	2291.384277	11.903512
372.482239	1160.905640	10265.588867	2289.043945	12.390747
372.844696	1238.143311	10097.070313	2157.973877	10.383093
373.207092	1151.543579	9863.017578	2136.908936	11.311121
373.569427	1200.694824	9958.979492	2221.168213	11.651521
373.931763	1165.586792	9940.254883	2153.292725	11.256334
374.294006	1242.824463	9774.077148	2181.379150	11.001369
374.656281	1153.884033	9692.158203	2232.871094	12.637062
375.018524	1203.035278	9926.211914	2167.335938	11.054466
375.380676	1149.203003	9823.228516	2186.060303	11.953588
375.742798	1158.565186	10186.010742	2251.595215	12.107856
376.104919	1132.819214	10232.822266	2314.789795	12.988684
376.467010	1165.586792	10527.729492	2305.427490	12.174998
376.829041	1224.100098	10967.750000	2340.535645	11.458083
377.191040	1193.673218	11419.473633	2352.238281	11.329823
377.552979	1137.500366	11508.414063	2324.151855	11.442111
377.914917	1203.035278	12351.006836	2410.751709	10.833508
378.276794	1163.246216	12130.996094	2532.459473	12.483994
378.638641	1149.203003	12194.190430	2600.335205	13.138378
379.000458	1165.586792	11768.212891	2487.989502	12.472407
379.362244	1231.121704	11302.446289	2366.281494	11.271207
379.724030	1219.419067	10944.344727	2424.794922	12.394705
380.085754	1172.608398	10377.934570	2331.173584	12.585814
380.447418	1151.543579	10321.761719	2328.833008	12.838184
380.809052	1163.246216	10225.799805	2368.622070	13.300620
381.170654	1177.289429	10207.076172	2328.833008	12.752721
381.532227	1163.246216	10101.751953	2270.319580	12.385441
381.893768	1191.332642	10178.989258	2277.341064	12.083333
382.255280	1170.267822	10429.426758	2363.940918	12.891809
382.616699	1172.608398	10024.513672	2333.513916	13.114753
382.978149	1217.078491	10052.600586	2218.827881	11.337749
383.339539	1203.035278	10235.162109	2319.470703	12.360715
383.700897	1144.521973	10501.983398	2373.303223	13.131567
384.062195	1135.159790	10806.252930	2279.681641	11.834462
384.423462	1191.332642	11037.965820	2438.838135	12.669361
384.784760	1130.478760	11068.392578	2431.816650	13.094679
385.145966	1172.608398	11176.057617	2434.156982	12.611136
385.507141	1207.716431	11337.554688	2509.054199	12.846581
385.868256	1172.608398	10998.176758	2380.324707	12.291567
386.229401	1214.738037	11218.187500	2513.735352	12.985495
386.590454	1181.970459	11192.441406	2483.308350	12.999767
386.951508	1186.651611	11538.840820	2422.454346	11.937597
387.312469	1130.478760	11396.068359	2555.864990	13.885089
387.673431	1221.759644	11716.721680	2616.718750	13.291702
388.034363	1191.332642	11672.250977	2628.421631	13.711480
388.395264	1193.673218	12156.742188	2516.075928	12.062340
388.756104	1149.203003	12067.801758	2647.145752	13.719185
389.116913	1186.651611	12156.742188	2630.761963	13.164069
389.477661	1193.673218	11864.174805	2635.443115	13.511735
389.838440	1181.970459	11836.088867	2633.102539	13.620386
390.199158	1191.332642	12067.801758	2616.718750	13.105228
390.559845	1146.862427	11826.726563	2590.972900	13.521806
390.920441	1128.138184	11995.245117	2775.875244	15.162609
391.281067	1144.521973	12098.228516	2682.253906	14.038462
391.641602	1100.051758	12636.551758	2665.870117	13.572733
392.002167	1165.586792	13277.858398	2904.604736	14.357489
392.362640	1231.121704	13818.522461	3045.036865	14.410563
392.723083	1181.970459	13827.884766	2981.842285	14.232833
393.083527	1123.457153	13809.160156	2939.712646	14.317342
393.443939	1123.457153	13324.668945	2839.069824	14.061002
393.804260	1137.500366	13369.139648	2850.772461	14.006888
394.164551	1102.392334	12992.313477	2890.561523	15.039370
394.524811	1184.311035	13224.026367	2923.329102	14.444014
394.885071	1135.159790	13809.160156	2937.372314	14.219761
395.245300	1163.246216	13813.841797	2972.480225	14.301572
395.605438	1193.673218	13556.382813	3110.571777	15.505488
395.965546	1186.651611	13221.685547	2979.501953	14.896928
396.325684	1132.819214	12851.880859	2984.182861	15.797883
396.685730	1170.267822	12622.508789	2946.734375	15.511955
397.045746	1181.970459	12107.590820	2946.734375	16.152529
397.405731	1163.246216	12116.953125	2932.691162	16.153847
397.765686	1160.905640	11946.093750	2855.453369	15.711804
398.125610	1090.689575	12130.996094	2897.583008	16.366333
398.485474	1191.332642	11927.369141	2902.264160	15.936343
398.845337	1198.354248	11873.537109	2942.053223	16.334137
399.205109	1214.738037	12114.612305	3028.653076	16.641615
399.564850	1200.694824	11908.645508	2935.031738	16.196720
399.924622	1191.332642	12112.271484	3023.972168	16.780972
400.284302	1153.884033	11990.564453	3110.571777	18.056154
400.643982	1210.056885	12058.439453	3131.636719	17.713053
401.003571	1219.419067	11852.472656	3084.825928	17.543472
401.363190	1114.094971	11690.975586	3070.782715	18.499666
401.722687	1200.694824	11768.212891	3166.744629	18.604650
402.082245	1109.413940	11962.477539	3150.361084	18.805264
402.441711	1165.586792	11690.975586	3260.366211	19.902157
402.801117	1193.673218	11782.256836	3323.560547	20.114939
403.160553	1240.483887	12074.823242	3358.668701	19.550659
403.519958	1188.992065	12355.687500	3501.441406	20.708447
403.879242	1226.440674	12561.654297	3529.527832	20.317986
404.238525	1210.056885	12568.676758	3578.678955	20.853079
404.597778	1123.457153	13060.188477	3894.651367	23.215689
404.957031	1214.738037	13266.156250	3815.072998	21.577003
405.316193	1137.500366	13685.112305	3904.013428	22.048124
405.675354	1121.116577	13853.630859	4222.326172	24.356615
406.034454	1153.884033	13624.257813	4152.110352	24.042793
406.393494	1217.078491	13472.123047	4238.709961	24.656223
406.752563	1109.413940	13387.864258	4400.207031	26.801371
407.111572	1191.332642	13123.383789	4470.422852	27.481363
407.470551	1186.651611	12762.940430	4468.082520	28.346138
407.829468	1111.754395	12599.103516	4519.574219	29.665850
408.188354	1200.694824	12842.519531	4695.114258	30.016081
408.547241	1167.927246	12929.119141	4784.054688	30.746267
408.906036	1156.224609	12573.357422	4807.460449	31.980322
409.264801	1130.478760	12549.952148	4842.568359	32.506660
409.623535	1135.159790	12905.713867	5027.470703	33.068207
409.982239	1252.186523	12482.076172	5125.772949	34.493538
410.340942	1160.905640	13034.443359	5329.399414	35.107426
410.699554	1191.332642	13277.858398	5535.366699	35.941132
411.058167	1137.500366	13233.388672	5724.950195	37.925694
411.416687	1125.797607	13874.695313	6026.879395	38.443184
411.775238	1181.970459	13392.544922	5909.852539	38.719570
412.133728	1130.478760	13195.940430	6076.030762	40.989326
412.492188	1181.970459	13280.199219	6305.402832	42.348618
412.850586	1174.948853	12617.828125	6359.235352	45.305790
413.208954	1221.759644	12819.113281	6546.478027	45.913219
413.567352	1179.630005	12865.924805	6693.932129	47.186062
413.925629	1121.116577	12954.865234	6923.304199	49.030849
414.283875	1156.224609	12879.967773	6810.958496	48.233177
414.642090	1221.759644	12980.610352	7068.417480	49.721336
415.000305	1240.483887	13408.928711	7346.941406	50.182724
415.358490	1191.332642	13465.101563	7545.886719	51.773457
415.716583	1146.862427	13427.653320	7482.692383	51.591385
416.074646	1137.500366	13696.814453	7754.194336	52.683559
416.432709	1146.862427	13881.716797	7866.540527	52.766037
416.790710	1249.846069	14068.959961	8184.853027	54.098953
417.148712	1167.927246	14384.931641	8610.831055	56.313095
417.506622	1186.651611	14593.239258	8470.398438	54.329613
417.864502	1205.375854	14885.806641	8985.316406	56.869118
418.222382	1233.462280	15218.163086	8982.975586	55.414219
418.580170	1207.716431	15543.497070	9336.396484	56.702042
418.937988	1207.716431	16297.149414	9657.049805	55.995033
419.295746	1184.311035	16685.677734	9926.211914	56.394382
419.653442	1165.586792	17406.564453	9879.401367	53.653263
420.011139	1172.608398	17591.466797	10384.957031	56.108334
420.368774	1163.246216	18249.156250	10675.182617	55.671230
420.726349	1174.948853	18897.484375	10904.555664	54.899632
421.083923	1067.284302	19901.574219	11262.657227	54.131977
421.441437	1198.354248	21092.906250	11726.083984	52.917648
421.798950	1200.694824	21282.490234	11833.748047	52.948715
422.156403	1205.375854	21872.304688	12241.000977	53.397507
422.513824	1170.267822	21858.261719	12397.817383	54.270847
422.871185	1158.565186	20987.583984	11910.986328	54.225681
423.228546	1219.419067	20900.982422	12044.396484	55.000599
423.585846	1137.500366	20837.789063	12149.720703	55.898777
423.943115	1273.251343	20439.898438	11824.385742	55.049458
424.300323	1217.078491	21022.691406	12311.217773	56.015129
424.657501	1130.478760	21720.169922	12563.995117	55.530296
425.014709	1231.121704	22010.396484	12720.811523	55.293983
425.371826	1109.413940	21935.500000	12505.481445	54.720158
425.728882	1165.586792	21659.316406	12678.681641	56.178619
426.085907	1158.565186	21610.166016	13104.659180	58.411533
426.442902	1228.781250	21195.890625	12657.617188	57.238312
426.799927	1205.375854	20524.156250	12449.308594	58.202080
427.156860	1196.013672	20191.800781	12299.514648	58.452438
427.513733	1252.186523	19653.478516	12407.179688	60.620705
427.870605	1226.440674	19117.494141	12002.266602	60.230251
428.227417	1184.311035	18473.847656	11910.986328	62.041428
428.584167	1170.267822	17621.892578	11763.532227	64.390388
428.940948	1249.846069	17467.417969	11714.380859	64.525902
429.297638	1132.819214	17202.937500	11634.802734	65.351006
429.654327	1203.035278	16556.949219	11391.386719	66.356705
430.010956	1181.970459	16533.542969	11569.267578	67.662758
430.367584	1174.948853	16262.041992	11459.262695	68.166306
430.724121	1151.543579	16353.322266	11686.294922	69.299461
431.080627	1191.332642	15899.258789	11454.581055	69.780388
431.437103	1198.354248	16556.949219	11569.267578	67.525146
431.793549	1231.121704	15887.555664	11468.625000	69.849892
432.149994	1156.224609	16180.123047	11360.959961	67.923355
432.506378	1102.392334	15616.053711	11047.328125	68.521202
432.862671	1163.246216	16421.197266	11655.867188	68.768219
433.218964	1273.251343	15868.832031	11590.332031	70.686333
433.575256	1245.164917	15995.220703	11791.618164	71.501106
433.931488	1256.867676	16680.998047	11765.873047	68.133537
434.287628	1200.694824	16851.857422	12161.422852	70.031403
434.643768	1163.246216	16952.500000	12416.541992	71.271866
434.999908	1158.565186	16800.365234	12271.428711	71.045937
435.356018	1200.694824	16631.845703	11967.159180	69.770981
435.712036	1123.457153	16725.466797	12189.509766	70.927101
436.068024	1163.246216	16620.144531	12205.893555	71.441551
436.423981	1142.181396	16519.500000	12219.936523	72.039574
436.779907	1226.440674	16421.197266	12180.147461	72.088730
437.135803	1174.948853	16418.857422	12358.028320	73.360970
437.491638	1214.738037	16250.338867	12341.644531	74.003738
437.847443	1139.840820	16526.521484	12409.519531	73.243080
438.203186	1191.332642	16695.041016	12297.173828	71.633446
438.558960	1132.819214	16538.224609	12528.887695	73.974480
438.914642	1198.354248	17212.298828	12746.556641	72.113419
439.270294	1238.143311	17018.035156	12318.239258	70.216553
439.625885	1188.992065	17231.023438	12734.854492	71.972572
439.981476	1153.884033	17652.320313	12622.508789	69.513412
440.337097	1207.716431	18230.431641	13018.059570	69.379898
440.692566	1174.948853	18513.636719	13107.000000	68.817497
441.048035	1196.013672	19515.386719	13397.225586	66.602783
441.403473	1191.332642	19456.873047	13256.793945	66.055862
441.758820	1198.354248	19910.937500	13476.804688	65.616005
442.114227	1235.802856	20070.093750	13610.214844	65.701500
442.469543	1196.013672	19826.677734	13472.123047	65.891960
442.824799	1167.927246	18888.123047	13088.275391	67.269844
443.180023	1170.267822	18581.511719	13137.426758	68.732361
443.535309	1132.819214	18434.058594	12767.622070	67.248375
443.890442	1191.332642	17867.648438	12678.681641	68.884209
444.245575	1172.608398	17996.378906	12463.352539	67.111855
444.600647	1203.035278	17982.335938	12730.173828	68.698563
444.955688	1125.797607	18078.296875	12723.151367	68.410873
445.310730	1165.586792	18211.707031	12578.038086	66.950432
445.665710	1177.289429	18747.691406	12952.524414	67.017448
446.020660	1188.992065	18909.187500	12856.562500	65.843353
446.375549	1137.500366	19793.910156	13310.625977	65.249023
446.730408	1151.543579	19784.546875	13165.512695	64.476822
447.085297	1153.884033	20301.806641	12945.502930	61.581718
447.440033	1163.246216	20959.496094	13116.361328	60.380703
447.794800	1291.975708	21125.673828	13490.847656	61.505791
448.149506	1228.781250	21018.009766	13151.469727	60.248375
448.504211	1203.035278	21083.544922	13528.295898	61.996704
448.858826	1146.862427	20299.464844	13064.870117	62.226574
449.213409	1067.284302	20425.855469	12989.972656	61.588684
449.567963	1158.565186	19714.332031	12922.097656	63.395557
449.922485	1116.435547	19484.958984	12351.006836	61.162083
450.277008	1142.181396	18595.556641	12219.936523	63.470562
450.631470	1170.267822	19372.613281	12362.708984	61.489006
450.985870	1259.208130	18174.259766	11571.608398	60.965824
451.340210	1224.100098	18061.914063	11967.159180	63.803165
451.694550	1214.738037	17345.708984	11761.191406	65.380150
452.048889	1280.272949	17242.726563	11344.576172	63.049850
452.403107	1135.159790	17521.250000	11492.030273	63.205257
452.757324	1114.094971	17907.437500	11300.106445	60.655060
453.111481	1247.505493	17813.816406	11379.684570	61.161346
453.465668	1142.181396	18331.074219	11562.246094	60.620918
453.819763	1212.397461	18265.541016	11637.143555	61.130932
454.173828	1172.608398	17198.255859	10998.176758	61.311523
454.527863	1200.694824	16877.601563	10862.425781	61.630341
454.881836	1261.548706	16411.835938	10750.080078	62.629383
455.235809	1287.294556	16278.425781	10794.550781	63.419205
455.589722	1172.608398	16091.182617	10675.182617	63.696262
455.943604	1212.397461	15814.999023	10506.664063	63.648018
456.297424	1151.543579	15782.231445	10122.816406	61.318188
456.651184	1170.267822	15697.972656	10410.702148	63.605602
457.005005	1174.948853	15756.486328	10157.924805	61.605133
457.358704	1245.164917	16030.328125	10375.594727	61.754002
457.712402	1179.630005	16266.722656	10099.411133	59.121937
458.066010	1177.289429	16109.907227	10090.048828	59.686516
458.419708	1245.164917	16027.988281	10057.281250	59.610508
458.773224	1217.078491	16697.380859	10214.097656	58.119144
459.126770	1170.267822	16893.986328	10583.902344	59.869011
459.480225	1188.992065	18022.125000	10710.291016	56.562843
459.833679	1214.738037	18740.667969	10874.128906	55.114853
460.187134	1188.992065	19765.824219	11269.678711	54.264832
460.540527	1163.246216	21647.613281	11922.688477	52.525139
460.893860	1081.327515	21680.380859	11779.916016	51.937286
461.247131	1132.819214	21366.750000	11683.954102	52.145748
461.600372	1179.630005	20847.150391	11286.062500	51.386414
461.953674	1181.970459	19323.462891	10892.852539	53.528572
462.306824	1214.738037	18277.242188	10635.393555	55.212620
462.659943	1217.078491	17664.023438	10485.599609	56.354061
463.013062	1153.884033	17029.738281	9879.401367	54.960934
463.366180	1160.905640	16360.343750	9984.724609	58.053589
463.719208	1172.608398	15903.939453	9467.466797	56.307594
464.072174	1193.673218	15508.388672	9476.829102	57.864624
464.425110	1212.397461	15688.610352	9535.341797	57.493935
464.778015	1226.440674	15293.059570	9383.207031	57.986687
465.130951	1210.056885	15091.773438	8999.359375	56.111954
465.483765	1184.311035	14977.087891	9256.818359	58.527061
465.836548	1242.824463	15222.843750	9163.197266	56.654949
466.189301	1196.013672	14841.336914	9128.088867	58.130356
466.542023	1193.673218	15157.308594	9041.489258	56.201809
466.894745	1207.716431	15030.919922	9074.256836	56.908234
467.247375	1177.289429	15295.400391	9146.813477	56.448936
467.600006	1156.224609	16156.717773	9378.526367	54.813541
467.952576	1163.246216	16315.874023	9652.369141	56.024097
468.305084	1224.100098	16098.204102	9516.618164	55.751377
468.657623	1181.970459	15566.902344	9263.839844	56.182880
469.010040	1177.289429	15260.291992	9378.526367	58.235004
469.362457	1196.013672	14696.223633	8936.165039	57.333565
469.714844	1196.013672	14775.801758	8912.759766	56.825233
470.067200	1165.586792	14223.435547	8610.831055	57.017387
470.419495	1188.992065	14148.538086	8835.522461	59.003071
470.771759	1186.651611	13900.441406	8847.224609	60.254047
471.123962	1146.862427	13858.311523	8610.831055	58.718472
471.476105	1184.311035	13972.998047	8664.663086	58.491943
471.828308	1149.203003	13961.294922	8578.063477	57.983196
472.180389	1184.311035	14214.073242	8779.349609	58.289928
472.532471	1268.570313	14052.576172	8568.701172	57.103626
472.884460	1132.819214	14132.154297	8870.629883	59.524666
473.236481	1181.970459	14176.624023	8800.414063	58.627522
473.588440	1179.630005	14892.828125	8957.229492	56.716160
473.940369	1121.116577	14689.202148	8781.689453	56.460232
474.292206	1252.186523	15143.265625	9289.585938	57.860153
474.644043	1163.246216	15124.541016	8975.954102	55.959766
474.995880	1179.630005	14642.390625	8868.289063	57.110569
475.347626	1130.478760	14583.877930	8762.965820	56.732780
475.699341	1200.694824	14408.337891	8711.473633	56.866913
476.050995	1097.711182	14494.937500	8922.122070	58.403217
476.402618	1123.457153	14148.538086	8500.825195	56.639709
476.754272	1163.246216	14595.580078	8645.938477	55.706570
477.105835	1214.738037	15084.751953	8842.543945	54.994938
477.457336	1207.716431	15384.340820	8943.186523	54.564968
477.808807	1191.332642	15431.151367	9067.235352	55.309013
478.160248	1181.970459	15426.470703	8887.013672	54.091354
478.511688	1240.483887	15573.923828	8819.138672	52.873943
478.863037	1210.056885	16016.285156	9202.986328	53.983562
479.214355	1177.289429	16362.684570	9289.585938	53.421700
479.565643	1186.651611	16793.343750	9291.926758	51.934612
479.916931	1191.332642	16510.138672	9081.278320	51.504967
480.268127	1280.272949	17144.423828	9650.028320	52.758930
480.619293	1212.397461	16837.812500	9462.785156	52.801079
480.970428	1198.354248	16947.818359	9334.055664	51.657005
481.321503	1167.927246	17797.433594	9596.196289	50.682621
481.672607	1153.884033	18757.052734	10153.243164	51.123520
482.023621	1186.651611	19611.347656	10176.649414	48.793198
482.374603	1219.419067	20388.406250	10516.026367	48.498169
482.725525	1158.565186	23019.167969	11183.079102	45.856529
483.076385	1214.738037	24079.431641	11482.667969	44.907356
483.427307	1196.013672	26588.484375	12231.639648	43.460228
483.778137	1231.121704	30532.287109	13760.008789	42.759003
484.128876	1177.289429	35861.687500	15037.941406	39.962212
484.479614	1135.159790	42749.882813	17275.494141	38.785152
484.830353	1226.440674	48093.328125	19325.802734	38.618656
485.181030	1310.699951	49441.476563	19810.292969	38.436100
485.531616	1128.138184	45682.574219	18733.646484	39.514599
485.882202	1160.905640	40261.894531	16901.007813	40.255001
486.232727	1121.116577	35861.687500	15337.530273	40.921650
486.583282	1170.267822	32868.140625	14164.921875	40.995350
486.933746	1210.056885	30256.103516	13235.729492	41.402100
487.284149	1219.419067	31208.703125	14019.808594	42.683212
487.634552	1142.181396	33310.503906	14349.824219	41.057915
487.984863	1172.608398	35611.250000	14834.314453	39.669701
488.335236	1198.354248	37120.894531	15693.291016	40.350536
488.685516	1273.251343	37919.019531	15552.859375	38.966595
489.035706	1261.548706	37298.777344	15407.746094	39.254395
489.385895	1196.013672	35648.699219	14778.141602	39.422550
489.736115	1123.457153	32826.011719	13970.657227	40.524181
490.086212	1217.078491	30274.828125	13207.642578	41.264599
490.436279	1144.521973	28699.648438	12622.508789	41.654629
490.786316	1193.673218	27606.617188	12191.850586	41.639351
491.136261	1188.992065	27929.611328	12416.541992	41.986874
491.486267	1235.802856	28114.513672	12383.774414	41.475098
491.836182	1186.651611	30134.396484	12894.010742	40.443081
492.186066	1118.776001	34153.097656	13914.484375	38.734589
492.535889	1167.927246	35700.191406	14434.083008	38.416698
492.885681	1146.862427	36306.390625	14724.309570	38.616695
493.235504	1109.413940	32584.937500	13741.285156	40.132362
493.585205	1160.905640	29947.154297	12601.444336	39.743073
493.934875	1188.992065	26991.056641	11824.385742	41.219158
494.284454	1212.397461	24837.763672	11040.306641	41.598969
494.634064	1196.013672	23227.476563	10700.928711	43.142460
494.983704	1156.224609	21876.986328	10129.837891	43.307354
495.333221	1233.462280	21413.560547	10061.962891	43.748554
495.682678	1151.543579	20423.513672	9659.390625	44.146221
496.032104	1132.819214	20154.351563	9200.645508	42.414173
496.381561	1165.586792	20374.363281	9504.915039	43.414154
496.730896	1186.651611	20788.636719	9378.526367	41.791050
497.080200	1203.035278	20613.097656	9373.845703	42.095745
497.429474	1214.738037	21003.966797	9671.093750	42.732113
497.778748	1181.970459	22071.251953	9839.612305	41.445377
498.127991	1107.073364	21497.820313	9650.028320	41.896236
498.477142	1193.673218	21362.068359	9589.174805	41.627022
498.826263	1121.116577	20987.583984	9631.303711	42.836945
499.175323	1163.246216	20802.681641	9474.488281	42.319149
499.524353	1198.354248	20676.291016	9380.867188	42.009132
499.873444	1238.143311	20652.886719	9446.401367	42.278477
500.222382	1179.630005	20336.914063	9233.413086	42.040321
500.571320	1172.608398	19590.283203	9060.213867	42.826279
500.920166	1205.375854	19548.154297	8903.397461	41.967587
501.269043	1163.246216	19220.478516	8760.625000	42.073883
501.617859	1179.630005	18958.337891	8929.143555	43.588737
501.966614	1158.565186	18527.679688	8748.921875	43.700306
502.315338	1158.565186	18614.279297	8606.149414	42.665592
502.664032	1198.354248	18644.707031	8571.041992	42.259190
503.012726	1191.332642	18551.085938	8332.306641	41.135227
503.361328	1224.100098	18511.296875	8503.166016	42.106686
503.709869	1196.013672	18611.939453	8498.485352	41.929852
504.058380	1146.862427	18464.486328	8519.549805	42.573322
504.406891	1214.738037	18738.328125	8697.430664	42.700684
504.755402	1153.884033	19243.884766	8449.333984	40.328636
505.103760	1144.521973	18761.734375	8741.900391	43.124748
505.452148	1170.267822	19042.597656	8538.274414	41.225777
505.800476	1212.397461	18998.126953	8538.274414	41.189632
506.148804	1242.824463	18799.181641	8491.462891	41.287827
506.497040	1170.267822	18988.765625	8367.415039	40.391438
506.845215	1177.289429	18792.160156	8381.458008	40.898220
507.193390	1078.986938	18494.912109	8514.869141	42.695877
507.541504	1186.651611	18558.107422	8355.711914	41.269199
507.889648	1139.840820	18415.333984	8308.901367	41.498444
508.237701	1123.457153	18960.679688	8334.647461	40.427765
508.585693	1109.413940	18890.462891	8334.647461	40.634460
508.933655	1186.651611	19477.937500	8566.360352	40.345493
509.281586	1210.056885	19964.769531	8601.468750	39.410957
509.629517	1125.797607	20252.654297	8615.511719	39.158100
509.977356	1273.251343	20390.746094	8498.485352	37.793835
510.325195	1153.884033	20491.388672	8744.241211	39.252003
510.672943	1214.738037	20828.425781	8748.921875	38.412888
511.020691	1165.586792	20987.583984	8919.781250	39.119137
511.368408	1207.716431	21097.587891	8814.457031	38.244293
511.716034	1179.630005	21006.306641	8901.056641	38.944637
512.063660	1207.716431	21142.058594	8669.343750	37.431019
512.411194	1125.797607	21687.402344	8959.570313	38.099030
512.758789	1151.543579	21762.300781	9170.218750	38.905293
513.106262	1179.630005	21738.894531	8889.354492	37.500004
513.453674	1172.608398	22082.953125	8854.246094	36.736065
513.801147	1160.905640	21841.878906	9160.856445	38.682663
514.148438	1153.884033	21806.771484	8793.392578	36.990028
514.495789	1184.311035	21839.537109	8732.538086	36.543907
514.843140	1214.738037	21792.726563	8814.457031	36.931301
515.190308	1198.354248	21764.640625	8732.538086	36.633659
515.537537	1193.673218	21247.382813	8683.387695	37.348274
515.884766	1235.802856	21546.970703	8470.398438	35.618809
516.231873	1146.862427	21507.181641	8695.089844	37.073231
516.578918	1156.224609	21411.220703	8720.835938	37.346889
516.926025	1196.013672	21659.316406	8599.127930	36.177513
517.273010	1172.608398	22061.888672	8819.138672	36.605042
517.619995	1212.397461	22712.558594	8760.625000	35.107773
517.966980	1207.716431	23435.783203	8952.548828	34.842583
518.313843	1193.673218	24467.958984	9282.564453	34.754627
518.660645	1193.673218	25268.421875	9572.791016	34.804592
519.007446	1193.673218	26911.478516	10132.178711	34.756100
519.354248	1228.781250	27304.689453	10186.010742	34.350594
519.700989	1219.419067	27470.867188	10134.519531	33.960415
520.047729	1261.548706	27143.191406	10258.567383	34.762161
520.394287	1188.992065	26398.902344	9916.849609	34.620739
520.740906	1186.651611	25556.308594	9650.028320	34.729160
521.087524	1196.013672	25034.369141	9296.607422	33.981346
521.434021	1196.013672	24210.500000	9170.218750	34.648632
521.780518	1212.397461	23566.853516	9027.446289	34.959690
522.126953	1177.289429	23454.507813	8840.203125	34.397980
522.473389	1191.332642	23447.486328	8929.143555	34.767063
522.819763	1219.419067	22845.968750	8606.149414	34.155846
523.166077	1165.586792	22916.183594	8741.900391	34.832668
523.512329	1174.948853	23075.341797	8610.831055	33.953194
523.858582	1184.311035	23021.507813	8947.868164	35.551987
524.204773	1078.986938	23587.917969	8940.845703	34.927731
524.550964	1205.375854	24018.576172	8985.316406	34.102798
524.897095	1207.716431	24702.013672	9095.321289	33.572426
525.243164	1170.267822	24996.919922	9130.429688	33.408646
525.589172	1174.948853	26459.755859	9582.153320	33.250023
525.935242	1144.521973	28084.087891	9956.638672	32.710686
526.281128	1149.203003	29249.673828	10214.097656	32.258869
526.627136	1179.630005	30536.968750	10867.107422	32.998489
526.972961	1170.267822	31758.728516	10700.928711	31.157701
527.318787	1214.738037	31742.343750	10761.783203	31.273481
527.664612	1191.332642	32896.226563	11215.846680	31.618189
528.010376	1109.413940	33809.039063	11307.127930	31.186028
528.356079	1177.289429	35908.496094	12020.991211	31.221783
528.701721	1142.181396	40734.683594	13563.404297	31.372663
529.047424	1214.738037	46948.804688	15176.033203	30.527124
529.393005	1210.056885	51929.464844	16755.894531	30.650671
529.738525	1212.397461	52683.117188	17085.910156	30.839890
530.084045	1174.948853	50808.347656	16566.310547	31.010090
530.429504	1151.543579	46815.394531	15421.789063	31.250639
530.774963	1177.289429	42415.187500	14068.959961	31.261707
531.120361	1221.759644	38518.195313	12842.519531	31.157827
531.465698	1181.970459	35091.652344	11838.429688	31.426004
531.810974	1219.419067	32650.472656	10883.491211	30.746893
532.156311	1240.483887	30473.773438	10560.497070	31.881510
532.501526	1221.759644	29823.105469	10209.416016	31.423893
532.846741	1179.630005	30122.693359	10171.967773	31.069061
533.191895	1198.354248	30866.984375	10331.124023	30.782578
533.536926	1177.289429	33289.437500	10951.366211	30.437319
533.882080	1153.884033	36334.476563	11714.380859	30.017962
534.227051	1149.203003	37268.347656	12058.439453	30.203474
534.572021	1203.035278	37247.285156	11873.537109	29.603895
534.916992	1200.694824	34873.980469	11400.749023	30.291237
535.261902	1210.056885	32865.800781	10843.701172	30.432531
535.606750	1172.608398	30859.962891	10462.194336	31.291389
535.951599	1174.948853	29214.566406	9853.655273	30.951586
536.296387	1144.521973	27903.865234	9310.650391	30.516924
536.641052	1242.824463	27295.326172	9263.839844	30.787889
536.985779	1249.846069	28205.794922	9483.850586	30.546150
537.330444	1186.651611	29446.279297	9671.093750	30.023193
537.675110	1181.970459	29731.824219	9968.340820	30.775536
538.019653	1198.354248	29139.667969	9535.341797	29.837492
538.364136	1144.521973	27828.968750	9422.996094	31.023594
538.708679	1193.673218	26384.857422	9057.873047	31.218063
539.053162	1163.246216	25589.076172	8454.014648	29.848600
539.397522	1203.035278	24898.617188	8306.560547	29.978270
539.741882	1198.354248	24615.414063	8259.750000	30.154919
540.086243	1188.992065	24666.904297	8355.711914	30.525372
540.430542	1167.927246	25062.455078	8381.458008	30.189051
540.774719	1193.673218	26431.669922	8791.051758	30.102938
541.118958	1249.846069	27953.017578	9212.348633	29.818563
541.463074	1249.846069	30707.828125	9973.022461	29.612268
541.807312	1233.462280	34422.257813	10857.745117	28.998590
542.151367	1121.116577	37179.410156	11761.191406	29.507984
542.495361	1226.440674	38469.042969	12060.780273	29.091253
542.839355	1177.289429	37366.652344	11812.683594	29.388178
543.183350	1177.289429	34916.109375	11276.701172	29.934099
543.527283	1167.927246	33179.433594	10546.453125	29.297358
543.871155	1167.927246	31976.398438	10190.692383	29.286638
544.214966	1256.867676	30125.035156	10136.859375	30.760498
544.558777	1245.164917	28603.685547	9308.310547	29.472155
544.902466	1179.630005	27112.765625	8903.397461	29.783394
545.246277	1224.100098	25631.205078	8292.517578	28.960491
545.589905	1153.884033	24311.144531	8098.253418	29.987871
545.933533	1153.884033	23819.630859	7957.821289	30.018591
546.277100	1200.694824	23632.388672	7857.178223	29.674458
546.620667	1221.759644	23381.951172	7826.750977	29.805660
546.964233	1217.078491	23524.724609	7913.351074	30.017836
547.307678	1207.716431	23466.210938	7922.713379	30.168245
547.651062	1149.203003	24039.640625	7918.032227	29.570553
547.994446	1177.289429	23702.603516	7941.437500	30.029095
548.337830	1191.332642	23147.898438	7728.448730	29.772943
548.681091	1174.948853	22436.375000	7253.319824	28.588728
549.024353	1149.203003	21387.814453	7040.331055	29.108360
549.367554	1170.267822	20381.384766	6822.661621	29.422514
549.710693	1240.483887	19679.224609	6682.229492	29.512568
550.053894	1284.954102	19014.511719	6471.581055	29.254124
550.397034	1193.673218	17909.779297	6150.927734	29.655558
550.739990	1256.867676	17916.800781	5830.274414	27.451530
551.083008	1186.651611	17708.492188	6083.052246	29.635927
551.425964	1156.224609	17385.498047	5937.938965	29.463514
551.768982	1205.375854	17263.791016	5975.387695	29.704124
552.111816	1074.305908	17235.705078	5912.192871	29.934826
552.454651	1142.181396	17245.066406	5980.068359	30.043602
552.797424	1137.500366	17565.720703	6120.500488	30.331951
553.140259	1172.608398	17741.259766	5923.895508	28.676365
553.482971	1142.181396	18295.966797	6115.819824	28.994410
553.825684	1252.186523	18256.177734	6169.651855	28.919476
554.168274	1160.905640	18129.789063	5989.430664	28.455173
554.510803	1186.651611	17919.140625	6029.219727	28.941113
554.853455	1263.889282	17764.666016	5928.576660	28.269501
555.195923	1111.754395	17245.066406	5900.490234	29.682285
555.538391	1191.332642	16994.628906	5844.317383	29.443129
555.880798	1196.013672	16898.667969	5643.031250	28.320166
556.223206	1184.311035	16620.144531	5563.453125	28.369974
556.565613	1221.759644	16299.490234	5720.269043	29.835453
556.907898	1191.332642	16133.312500	5605.583008	29.542608
557.250122	1186.651611	15955.431641	5526.004883	29.381935
557.592346	1280.272949	15913.301758	5605.583008	29.558542
557.934570	1259.208130	15796.275391	5415.999512	28.594429
558.276672	1198.354248	15707.334961	5383.231934	28.843363
558.618774	1221.759644	15700.313477	5287.270020	28.079533
558.960815	1212.397461	15697.972656	5408.978027	28.970755
559.302795	1207.716431	15569.243164	5284.929688	28.389833
559.644836	1214.738037	15602.010742	5144.497559	27.314138
559.986755	1174.948853	15728.399414	5130.454102	27.179159
560.328674	1238.143311	15585.626953	5277.907715	28.156607
560.670410	1247.505493	15506.048828	5273.226563	28.233749
561.012268	1121.116577	15297.741211	5324.718750	29.651642
561.354065	1153.884033	15466.259766	5350.464355	29.321337
561.695801	1186.651611	15758.826172	5130.454102	27.063925
562.037476	1174.948853	15910.960938	5254.502441	27.684246
562.379028	1200.694824	15969.474609	5394.934570	28.399366
562.720703	1219.419067	15632.437500	5320.037598	28.450796
563.062256	1160.905640	15850.107422	5153.859375	27.182917
563.403748	1193.673218	15681.588867	5249.821289	27.996765
563.745178	1254.527100	15875.853516	5305.994141	27.709299
564.086609	1149.203003	15335.189453	5151.519043	28.213167
564.428101	1167.927246	15321.146484	5224.075684	28.658840
564.769409	1167.927246	15644.140625	5263.864746	28.294262
565.110657	1224.100098	15482.643555	5226.416016	28.069599
565.451904	1263.889282	15969.474609	5203.010742	26.786568
565.793152	1188.992065	16004.583008	5245.140137	27.377565
566.134399	1121.116577	16322.895508	5380.891602	28.021555
566.475464	1144.521973	16870.580078	5493.237305	27.652925
566.816589	1137.500366	17259.109375	5781.123047	28.803717
567.157593	1214.738037	17603.167969	5645.372070	27.035133
567.498657	1214.738037	17792.751953	5790.485352	27.601299
567.839661	1186.651611	17797.433594	5708.566406	27.222771
568.180542	1186.651611	17003.992188	5603.242188	27.922461
568.521423	1226.440674	16917.392578	5589.199219	27.804296
568.862244	1170.267822	16290.127930	5474.512695	28.467493
569.203064	1224.100098	16329.916992	5263.864746	26.743107
569.543884	1179.630005	16077.139648	5415.999512	28.436764
569.884521	1142.181396	16109.907227	5327.059082	27.959345
570.225220	1238.143311	16063.095703	5287.270020	27.312916
570.565796	1205.375854	16355.663086	5359.826660	27.421597
570.906433	1172.608398	16027.988281	5338.761719	28.044744
571.247009	1198.354248	16311.193359	5364.507813	27.566980
571.587463	1245.164917	16390.771484	5294.291504	26.734661
571.927917	1177.289429	16809.726563	5462.810059	27.414282
572.268372	1205.375854	17149.105469	5427.702148	26.482676
572.608765	1170.267822	17312.941406	5657.074707	27.794693
572.949097	1282.613525	17673.384766	5809.209473	27.616734
573.289368	1226.440674	17771.687500	5600.901855	26.439383
573.629639	1196.013672	17610.189453	5708.566406	27.491802
573.969910	1231.121704	17448.693359	5479.193848	26.194256
574.310059	1196.013672	17151.445313	5605.583008	27.636791
574.650146	1139.840820	16723.126953	5521.323730	28.116552
574.990234	1256.867676	16959.521484	5366.848145	26.173794
575.330261	1130.478760	16753.554688	5327.059082	26.861420
575.670288	1198.354248	16739.511719	5266.205078	26.174698
576.010193	1181.970459	16875.261719	5476.853516	27.367636
576.350159	1245.164917	16617.802734	5446.426270	27.329475
576.690002	1245.164917	16568.652344	5359.826660	26.851992
577.029785	1266.229736	15810.318359	5217.053711	27.164465
577.369629	1200.694824	15789.253906	5069.600098	26.520134
577.709412	1198.354248	15524.772461	5034.492188	26.776672
578.049133	1203.035278	15342.210938	4919.806152	26.287041
578.388733	1198.354248	14764.098633	4901.081543	27.294685
578.728394	1200.694824	14759.417969	4812.141113	26.635593
579.067993	1247.505493	14319.397461	4706.817383	26.463745
579.407532	1214.738037	14043.213867	4606.174316	26.436783
579.746948	1165.586792	13902.781250	4486.806641	26.074970
580.086365	1240.483887	13610.214844	4594.471680	27.114477
580.425842	1212.397461	13455.739258	4545.320313	27.222330
580.765198	1184.311035	13378.501953	4355.736816	26.007675
581.104553	1165.586792	13291.902344	4301.904297	25.863729
581.443787	1179.630005	13032.102539	4376.801758	26.974724
581.783020	1228.781250	13064.870117	4411.909668	26.893414
582.122253	1198.354248	13090.616211	4498.509277	27.750441
582.461365	1156.224609	12882.308594	4374.460938	27.445107
582.800476	1107.073364	13053.166992	4278.499023	26.547806
583.139526	1167.927246	12784.005859	4301.904297	26.979649
583.478638	1184.311035	12875.286133	4227.007324	26.026028
583.817627	1165.586792	12767.622070	4369.780273	27.617512
584.156494	1205.375854	12835.497070	4196.580566	25.719461
584.495422	1240.483887	12678.681641	4147.429199	25.414366
584.834229	1247.505493	12556.973633	4276.158691	26.779804
585.173096	1170.267822	12578.038086	4271.477539	27.185064
585.511841	1179.630005	12561.654297	4243.391113	26.917542
585.850586	1252.186523	12329.941406	4032.742920	25.100361
586.189270	1249.846069	12266.747070	4184.877930	26.641172
586.527893	1280.272949	12269.087891	4053.807617	25.239616
586.866516	1210.056885	12259.725586	4065.510498	25.841984
587.205078	1200.694824	12196.531250	4088.915771	26.266497
587.543579	1111.754395	12306.536133	4194.239746	27.535021
587.882019	1160.905640	12372.071289	4086.575195	26.096031
588.220520	1153.884033	12505.481445	4163.812988	26.515465
588.558838	1233.462280	12615.487305	4147.429199	25.601479
588.897217	1139.840820	12631.871094	4128.705078	26.008148
589.235535	1191.332642	12645.914063	4255.093750	26.747038
589.573730	1252.186523	12961.886719	4320.628906	26.204277
589.911987	1249.846069	12828.475586	4212.964355	25.591269
590.250122	1249.846069	12643.573242	4250.412598	26.335249
590.588257	1200.694824	13001.675781	4374.460938	26.894089
590.926392	1252.186523	12793.368164	4322.969238	26.607178
591.264404	1200.694824	12994.654297	4351.055664	26.711649
591.602417	1207.716431	12643.573242	4060.829346	24.948833
591.940369	1203.035278	12791.027344	4060.829346	24.661684
592.278320	1224.100098	12463.352539	4271.477539	27.113703
592.616150	1245.164917	12369.730469	4201.261719	26.572693
592.954041	1231.121704	12226.958008	4217.645020	27.160494
593.291809	1235.802856	12266.747070	4145.088379	26.373857
593.629517	1191.332642	12198.872070	4180.196777	27.152884
593.967224	1167.927246	12496.120117	4081.894043	25.723139
594.304871	1226.440674	12336.962891	4135.726563	26.184959
594.642578	1172.608398	12561.654297	4262.115234	27.127003
594.980103	1188.992065	12690.383789	4109.980469	25.396826
595.317566	1188.992065	12781.665039	4248.072266	26.388048
595.655090	1203.035278	12973.588867	4383.823242	27.023266
595.992493	1247.505493	13121.042969	4344.034180	26.079245
596.329956	1191.332642	12985.291992	4358.077148	26.850565
596.667297	1196.013672	13453.398438	4421.271973	26.312777
597.004639	1254.527100	13605.533203	4603.833496	27.117682
597.341919	1256.867676	14146.197266	4624.898438	26.130379
597.679199	1214.738037	14682.179688	4716.179199	25.999306
598.016357	1280.272949	14682.179688	4713.838867	25.619982
598.353455	1200.694824	14626.006836	4594.471680	25.278942
598.690552	1252.186523	14036.192383	4594.471680	26.144272
599.027588	1214.738037	13762.349609	4503.190430	26.207796
599.364685	1245.164917	13111.680664	4517.233887	27.573965
599.701599	1210.056885	12592.082031	4128.705078	25.642609
600.038574	1287.294556	12442.287109	4208.283203	26.185484
600.375427	1172.608398	12184.828125	4060.829346	26.227419
600.712219	1174.948853	11859.494141	4126.364258	27.623222
601.049072	1142.181396	11651.186523	4004.656494	27.238308
601.385803	1203.035278	11845.451172	3957.845703	25.885199
601.722534	1174.948853	11847.791016	3992.953857	26.403511
602.059143	1235.802856	11580.970703	4046.786133	27.171946
602.395813	1205.375854	11693.316406	4119.342773	27.783976
602.732483	1245.164917	11918.007813	3978.910645	25.614035
603.068909	1207.716431	11929.709961	4119.342773	27.155645
603.405457	1249.846069	12351.006836	4032.742920	25.068521
603.741882	1217.078491	12886.989258	4170.834473	25.310869
604.078308	1205.375854	13212.323242	4205.942383	24.990252
604.414673	1249.846069	13284.879883	4414.250000	26.293268
604.751038	1188.992065	13853.630859	4514.893066	26.261316
605.087280	1210.056885	14150.878906	4699.795410	26.966900
605.423523	1252.186523	14700.904297	4695.114258	25.600416
605.759766	1214.738037	14864.742188	4683.411621	25.411520
606.095886	1193.673218	14562.812500	4657.666016	25.910364
606.432007	1224.100098	14005.765625	4634.260742	26.680096
606.768005	1207.716431	13872.354492	4503.190430	26.021069
607.104004	1186.651611	13282.540039	4397.866699	26.547989
607.440063	1235.802856	13027.420898	4318.288086	26.141327
607.776001	1212.397461	12571.016602	4238.709961	26.643314
608.111816	1200.694824	12004.607422	4198.920898	27.751301
608.447754	1235.802856	11925.029297	4053.807617	26.363039
608.783569	1174.948853	11798.640625	4046.786133	27.032387
609.119263	1226.440674	11960.136719	3960.186279	25.468819
609.455017	1102.392334	12479.736328	4058.488770	25.982307
609.790649	1142.181396	12596.762695	4133.385742	26.113607
610.126282	1221.759644	12992.313477	4351.055664	26.585800
610.461914	1163.246216	13329.350586	4283.180176	25.644478
610.797485	1249.846069	13266.156250	4365.099121	25.925203
611.132935	1205.375854	13048.486328	4238.709961	25.612646
611.468384	1163.246216	12643.573242	4119.342773	25.749237
611.803772	1226.440674	12196.531250	4119.342773	26.370813
612.139160	1137.500366	12121.633789	3992.953857	25.996166
612.474548	1231.121704	11592.672852	3978.910645	26.519091
612.809753	1205.375854	11293.083984	3866.564941	26.380512
613.145020	1179.630005	11274.360352	3845.500000	26.408531
613.480225	1149.203003	11009.879883	3714.430176	26.014715
613.815430	1153.884033	10726.674805	3662.938232	26.210268
614.150513	1198.354248	10483.258789	3684.003174	26.770863
614.485535	1184.311035	10574.540039	3463.992676	24.277168
614.820557	1226.440674	10494.961914	3679.322021	26.464645
615.155579	1181.970459	10368.573242	3815.072998	28.662418
615.490479	1245.164917	10415.383789	3660.597656	26.339968
615.825378	1233.462280	10338.145508	3648.895020	26.529562
616.160217	1191.332642	10153.243164	3552.933105	26.351532
616.495056	1263.889282	10511.345703	3536.549316	24.576057
616.829773	1160.905640	10265.588867	3674.640869	27.609255
617.164551	1177.289429	10317.081055	3531.868164	25.761841
617.499207	1273.251343	10476.237305	3559.954590	24.847403
617.833801	1240.483887	10303.038086	3562.295166	25.619831
618.168396	1156.224609	10228.140625	3651.235596	27.502581
618.502991	1228.781250	10478.578125	3559.954590	25.202427
618.837463	1284.954102	10607.307617	3627.830322	25.131811
619.171875	1214.738037	10445.810547	3658.257324	26.470591
619.506287	1191.332642	10511.345703	3653.576172	26.418888
619.840698	1221.759644	10450.491211	3648.895020	26.299770
620.175049	1231.121704	10576.880859	3611.446533	25.469572
620.509277	1186.651611	10504.324219	3616.127686	26.073851
620.843445	1228.781250	10380.275391	3604.424805	25.959078
621.177673	1238.143311	10347.507813	3590.381592	25.822201
621.511841	1266.229736	10394.318359	3609.105957	25.666668
621.846008	1165.586792	10448.151367	3513.144043	25.289963
622.180054	1212.397461	10296.016602	3566.976318	25.921154
622.513977	1186.651611	10043.238281	3520.165527	26.347778
622.848022	1196.013672	10274.951172	3763.581299	28.280485
623.181946	1146.862427	10403.680664	3672.300537	27.281921
623.515808	1156.224609	10448.151367	3599.743896	26.297230
623.849670	1224.100098	10361.551758	3573.997803	25.717213
624.183411	1224.100098	10361.551758	3585.700684	25.845287
624.517273	1177.289429	10541.772461	3620.808594	26.093473
624.850952	1179.630005	10499.642578	3599.743896	25.966850
625.184570	1193.673218	10644.755859	3672.300537	26.225857
625.518188	1207.716431	10609.648438	3644.214111	25.914862
625.851746	1196.013672	10850.723633	3693.365234	25.866665
626.185364	1203.035278	10871.788086	3810.392090	26.966839
626.518860	1153.884033	11068.392578	3847.840576	27.171862
626.852234	1179.630005	11222.868164	3911.035156	27.196461
627.185669	1221.759644	11412.452148	3805.710938	25.355991
627.518982	1184.311035	11695.656250	4037.424072	27.143175
627.852356	1212.397461	11815.023438	3995.294434	26.247242
628.185608	1191.332642	11852.472656	3927.418701	25.664104
628.518799	1151.543579	11604.375977	4065.510498	27.877295
628.851929	1214.738037	11236.911133	3894.651367	26.739843
629.185120	1245.164917	11442.878906	3838.478516	25.430342
629.518188	1200.694824	11021.582031	3901.672852	27.502384
629.851257	1160.905640	10892.852539	3824.435303	27.368929
630.184265	1240.483887	10808.593750	3651.235596	25.195696
630.517212	1196.013672	10586.243164	3658.257324	26.221336
630.850159	1186.651611	10511.345703	3761.240723	27.610439
631.183044	1214.738037	10436.448242	3637.192383	26.269037
631.515808	1221.759644	10394.318359	3639.532959	26.358768
631.848572	1123.457153	10132.178711	3489.738525	26.266560
632.181335	1167.927246	10270.270508	3548.251953	26.150679
632.514099	1233.462280	9937.914063	3463.992676	25.625166
632.846680	1287.294556	10022.173828	3515.484619	25.509111
633.179260	1193.673218	9671.093750	3412.500977	26.173380
633.511841	1231.121704	9673.433594	3433.565674	26.088161
633.844421	1172.608398	9764.714844	3454.630615	26.559521
634.176880	1207.716431	9874.719727	3520.165527	26.681070
634.509338	1235.802856	10029.195313	3440.587402	25.073196
634.841675	1221.759644	10050.259766	3534.208740	26.193003
635.174011	1181.970459	9977.703125	3426.544189	25.518894
635.506348	1240.483887	9809.184570	3550.592529	26.959846
635.838623	1179.630005	9741.309570	3426.544189	26.243847
636.170837	1270.910889	9668.752930	3419.522461	25.585283
636.502930	1252.186523	9488.531250	3431.225342	26.456383
636.835022	1165.586792	9422.996094	3267.387695	25.453514
637.167114	1174.948853	9174.899414	3309.517334	26.682268
637.499146	1235.802856	9549.385742	3398.457764	26.013510
637.831116	1263.889282	9160.856445	3304.836426	25.844696
638.163086	1219.419067	8882.333008	3337.603760	27.642025
638.494995	1231.121704	8999.359375	3405.479248	27.990356
638.826904	1193.673218	8807.435547	3265.047119	27.205656
639.158630	1184.311035	8737.219727	3150.361084	26.030369
639.490417	1160.905640	8540.614258	3119.934082	26.546150
639.822144	1203.035278	8636.576172	3236.960693	27.361462
640.153870	1287.294556	8655.300781	3122.274658	24.904703
640.485474	1181.970459	8582.744141	3117.593506	26.154335
640.817017	1107.073364	8699.770508	3183.128418	27.342789
641.148560	1200.694824	8540.614258	3176.106934	26.913267
641.480042	1200.694824	8271.453125	3115.252930	27.077126
641.811523	1259.208130	8332.306641	3225.258057	27.796162
642.142944	1219.419067	8203.577148	3122.274658	27.245310
642.474304	1245.164917	8325.285156	3192.490723	27.504135
642.805664	1252.186523	8217.621094	3131.636719	26.982527
643.136963	1210.056885	7995.269531	3061.420654	27.285273
643.468140	1181.970459	8058.464355	3056.739502	27.263443
643.799316	1198.354248	7873.562012	3056.739502	27.840111
644.130432	1233.462280	8086.550781	2981.842285	25.512293
644.461548	1144.521973	8051.442383	2988.864014	26.702812
644.792603	1109.413940	8046.761719	2956.096436	26.619431
645.123596	1212.397461	8013.994141	3075.463867	27.391603
645.454590	1188.992065	8058.464355	3000.566650	26.371380
645.785461	1224.100098	8095.912598	3117.593506	27.554497
646.116333	1214.738037	7913.351074	2918.647949	25.436756
646.447205	1221.759644	7960.161621	3007.588379	26.502260
646.778015	1139.840820	8009.312988	3061.420654	27.972744
647.108704	1186.651611	7981.226563	2998.226074	26.662071
647.439331	1196.013672	8086.550781	2956.096436	25.543476
647.770081	1135.159790	8079.528809	3070.782715	27.873272
648.100647	1172.608398	8072.507324	3070.782715	27.510176
648.431274	1167.927246	7960.161621	2998.226074	26.946932
648.761719	1210.056885	8105.274902	3028.653076	26.374746
649.092163	1207.716431	7990.588867	2932.691162	25.431330
649.422607	1191.332642	7852.497070	3066.101807	28.144766
649.752991	1238.143311	7971.864258	3136.317871	28.189089
650.083313	1270.910889	7903.988770	2911.626221	24.735353
650.413635	1177.289429	7901.648438	3077.804443	28.263142
650.743835	1156.224609	7831.432129	3117.593506	29.382891
651.074097	1174.948853	8004.631836	3054.398926	27.518847
651.404236	1247.505493	7983.566895	2951.415527	25.295345
651.734375	1177.289429	8196.555664	2995.885742	25.908638
652.064392	1170.267822	8112.296387	3061.420654	27.242079
652.394470	1226.440674	8112.296387	3077.804443	26.886475
652.724426	1228.781250	7934.416016	3054.398926	27.225128
653.054321	1228.781250	7946.118652	3014.609863	26.585363
653.384216	1240.483887	7962.502441	3009.928955	26.323120
653.714111	1247.505493	7861.859375	3002.907227	26.539276
654.043884	1196.013672	7798.664551	2998.226074	27.295286
654.373657	1200.694824	7737.811035	2906.945313	26.100965
654.703308	1165.586792	7538.865234	2967.799072	28.277634
655.033020	1144.521973	7707.383789	2949.074951	27.496433
655.362549	1151.543579	7618.443359	2899.923584	27.035830
655.692200	1144.521973	7602.059570	3019.291016	29.032259
656.021729	1188.992065	7391.411621	2888.220947	27.396227
656.351196	1198.354248	7475.670898	2839.069824	26.137213
656.680664	1170.267822	7485.033203	2916.307373	27.650108
657.009949	1228.781250	7417.157227	2928.010010	27.458395
657.339417	1214.738037	7578.654297	2946.734375	27.215889
657.668701	1179.630005	7503.757324	2928.010010	27.646185
657.997925	1167.927246	7400.773926	2946.734375	28.539242
658.327087	1210.056885	7761.216309	3052.058594	28.117188
658.656372	1179.630005	7911.010254	2979.501953	26.738527
658.985474	1149.203003	8105.274902	2932.691162	25.639301
659.314514	1214.738037	8074.848145	3059.080078	26.885019
659.643494	1139.840820	8315.922852	3173.766357	28.343121
659.972534	1177.289429	8456.355469	3201.852783	27.813505
660.301514	1174.948853	8985.316406	3267.387695	26.790531
660.630371	1252.186523	8816.797852	3346.966064	27.691833
660.959167	1158.565186	8601.468750	3243.982422	28.018867
661.288025	1160.905640	8461.036133	3272.068848	28.919525
661.616760	1228.781250	8339.328125	3251.003906	28.439762
661.945496	1174.948853	8180.171875	3033.334229	26.528568
662.274109	1198.354248	7955.480469	3094.188232	28.056810
662.602783	1163.246216	7815.048340	3098.869141	29.099226
662.931335	1217.078491	7712.064941	2890.561523	25.765766
663.259949	1259.208130	7662.913574	2902.264160	25.657894
663.588379	1172.608398	7241.617188	2871.837158	27.998457
663.916809	1142.181396	7192.465820	2953.755859	29.941973
664.245239	1240.483887	7323.536133	2778.215820	25.278954
664.573486	1219.419067	7220.552246	2733.745605	25.234009
664.901917	1256.867676	7155.017578	2731.405029	24.999998
665.230103	1191.332642	7147.995605	2792.259033	26.876228
665.558350	1259.208130	6953.731445	2850.772461	27.949036
665.886475	1188.992065	6904.580078	2752.469971	27.354630
666.214661	1177.289429	6684.569824	2813.323730	29.706757
666.542725	1174.948853	7016.925781	2803.961670	27.884615
666.870789	1170.267822	7105.866211	2757.150879	26.735012
667.198730	1203.035278	6757.126465	2834.388672	29.372103
667.526672	1245.164917	7073.098633	2813.323730	26.907631
667.854614	1228.781250	6972.455566	2761.832031	26.691116
668.182495	1188.992065	6836.704590	2789.918457	28.346457
668.510254	1210.056885	6913.942383	2832.048096	28.436600
668.838013	1130.478760	6808.618164	2855.453369	30.379221
669.165710	1181.970459	6942.028809	2827.366943	28.565620
669.493408	1235.802856	7089.482422	2892.902100	28.308676
669.821045	1200.694824	7190.125488	2785.237305	26.455645
670.148560	1165.586792	7040.331055	2855.453369	28.764938
670.476074	1245.164917	6902.239746	2843.750732	28.258171
670.803650	1125.797607	6920.963867	2818.004883	29.200325
671.131104	1212.397461	6920.963867	2799.280518	27.798277
671.458435	1181.970459	6920.963867	2806.302246	28.303429
671.785828	1196.013672	6724.358887	2689.275391	27.011007
672.113098	1205.375854	6619.034668	2698.637695	27.583229
672.440369	1200.694824	6520.732422	2703.318604	28.244608
672.767578	1233.462280	6717.337402	2656.508057	25.949638
673.094788	1170.267822	6675.207520	2764.172607	28.954084
673.421814	1221.759644	6773.510254	2656.508057	25.843172
673.748962	1198.354248	6581.586426	2750.129395	28.826084
674.075989	1165.586792	6633.078125	2565.227051	25.599314
674.402954	1188.992065	6619.034668	2628.421631	26.508625
674.729919	1097.711182	6497.327148	2757.150879	30.732550
675.056824	1100.051758	6368.597656	2656.508057	29.542427
675.383667	1151.543579	6537.116211	2593.313477	26.770967
675.710449	1130.478760	6373.278320	2581.610840	27.678572
676.037231	1170.267822	6352.213867	2602.675537	27.642273
676.363892	1219.419067	6424.770508	2565.227051	25.854315
676.690674	1228.781250	6502.007813	2658.848389	27.119394
677.017273	1263.889282	6441.154297	2806.302246	29.792042
677.343811	1191.332642	6462.218750	2661.188965	27.886322
677.670349	1170.267822	6345.191895	2525.437988	26.187248
677.996765	1240.483887	6502.007813	2607.356689	25.978649
678.323303	1238.143311	6317.105469	2590.972900	26.635946
678.649658	1200.694824	6354.554199	2628.421631	27.702091
678.975952	1167.927246	6497.327148	2633.102539	27.492313
679.302246	1205.375854	6623.715820	2651.826904	26.695465
679.628479	1245.164917	6712.656250	2649.486328	25.684933
679.954773	1207.716431	6483.283691	2778.215820	29.769299
680.280945	1219.419067	6832.023438	2689.275391	26.188490
680.606995	1256.867676	6876.493652	2785.237305	27.196999
680.933105	1233.462280	6960.752930	2810.983398	27.543934
681.259155	1224.100098	7061.395996	2719.702393	25.621492
681.585144	1184.311035	6965.434082	2815.664307	28.218622
681.911072	1160.905640	7124.590332	2818.004883	27.786501
682.236938	1163.246216	6672.867188	2902.264160	31.563295
682.562744	1160.905640	6796.915527	2738.426758	27.990036
682.888550	1128.138184	6995.860840	2740.767334	27.483049
683.214294	1135.159790	6885.855957	2780.556396	28.612129
683.539978	1210.056885	6710.315918	2754.810547	28.085108
683.865601	1191.332642	6724.358887	2761.832031	28.384094
684.191284	1064.943726	6565.202637	2787.577881	31.319147
684.516907	1123.457153	6497.327148	2616.718750	27.787453
684.842346	1170.267822	6516.051270	2633.102539	27.364273
685.167847	1170.267822	6349.873047	2590.972900	27.428827
685.493286	1252.186523	6394.343262	2576.929688	25.762403
685.818665	1146.862427	6305.402832	2539.481201	26.996372
686.143982	1158.565186	6148.586914	2583.951416	28.564732
686.469238	1144.521973	6012.835938	2565.227051	29.182692
686.794434	1158.565186	6293.700195	2499.692139	26.116684
687.119690	1095.370728	6218.803223	2511.394775	27.638189
687.444885	1167.927246	6010.495605	2558.205566	28.709524
687.769958	1184.311035	6139.225098	2504.373047	26.641472
688.095032	1153.884033	6216.462891	2539.481201	27.369392
688.419983	1132.819214	6368.597656	2513.735352	26.374611
688.744934	1125.797607	6279.657227	2581.610840	28.247049
689.069885	1212.397461	6361.575684	2612.037842	27.181820
689.394775	1146.862427	6228.165527	2478.627197	26.209118
689.719543	1212.397461	6120.500488	2525.437988	26.752506
690.044373	1207.716431	6132.203613	2462.243408	25.475281
690.369141	1177.289429	5823.252441	2509.054199	28.664989
690.693848	1240.483887	5895.809082	2408.411133	25.087984
691.018433	1146.862427	5633.669434	2520.756836	30.620760
691.343018	1172.608398	5951.981934	2539.481201	28.599413
691.667542	1228.781250	5783.463379	2457.562500	26.978420
691.992065	1221.759644	5565.793945	2445.859863	28.178881
692.316589	1200.694824	5703.885254	2312.449219	24.688150
692.640930	1203.035278	5593.880371	2286.703369	24.680170
692.965332	1252.186523	5558.771973	2373.303223	26.032612
693.289551	1219.419067	5411.318359	2298.406006	25.739809
693.613953	1167.927246	5451.107422	2265.638428	25.628414
693.938171	1247.505493	5322.377930	2286.703369	25.502586
694.262268	1203.035278	5270.886230	2204.784668	24.626009
694.586426	1177.289429	5280.248535	2251.595215	26.183683
694.910461	1219.419067	5252.162109	2338.195068	27.742308
695.234558	1228.781250	5193.648438	2265.638428	26.151119
695.558533	1158.565186	5345.783203	2289.043945	26.998327
695.882446	1144.521973	5210.032227	2300.746582	28.439840
696.206360	1114.094971	5193.648438	2279.681641	28.571428
696.530212	1139.840820	5254.502441	2242.233154	26.791811
696.854065	1228.781250	5191.308105	2361.600342	28.588301
697.177795	1137.500366	5282.588867	2286.703369	27.724451
697.501465	1184.311035	5401.956055	2319.470703	26.914537
697.825134	1193.673218	5575.155762	2373.303223	26.923080
698.148804	1210.056885	5514.301758	2373.303223	27.025560
698.472351	1135.159790	5919.214844	2450.540771	27.495104
698.795898	1165.586792	6052.625000	2464.583984	26.580460
699.119385	1174.948853	6317.105469	2588.632324	27.492033
699.442749	1146.862427	6523.072754	2707.999756	29.037876
699.766174	1156.224609	6609.672852	2581.610840	26.137339
700.089539	1123.457153	6590.948242	2670.551270	28.296234
700.412842	1181.970459	6459.878418	2675.232178	28.292681
700.736023	1198.354248	6352.213867	2560.545898	26.430517
701.059265	1179.630005	5991.771484	2626.081055	30.058365
701.382446	1219.419067	6061.987305	2516.075928	26.776222
701.705505	1203.035278	5827.933594	2462.243408	27.226719
702.028564	1256.867676	5516.642578	2448.200195	27.967030
702.351563	1193.673218	5561.112793	2478.627197	29.421221
702.674561	1224.100098	5320.037598	2314.789795	26.628572
702.997498	1203.035278	5151.519043	2326.492432	28.452875
703.320374	1170.267822	5130.454102	2258.616943	27.482271
703.643127	1163.246216	5043.854492	2284.362793	28.890226
703.965942	1256.867676	4919.806152	2179.038574	25.175714
704.288696	1116.435547	4762.990234	2080.736084	26.444155
704.611389	1170.267822	4865.973633	2118.184814	25.649147
704.934021	1165.586792	4770.011719	2202.444092	28.766235
705.256592	1179.630005	4727.881836	2148.611816	27.308710
705.579163	1163.246216	4645.963379	2087.757813	26.545698
705.901672	1196.013672	4664.687500	2040.947021	24.358974
706.224121	1212.397461	4664.687500	2015.201172	23.254236
706.546509	1191.332642	4587.449707	2090.098389	26.464510
706.868835	1137.500366	4545.320313	2111.163086	28.571426
707.191223	1322.402588	4669.368652	2127.546875	24.055944
707.513428	1228.781250	4655.325195	2148.611816	26.844265
707.835693	1249.846069	4552.341797	2008.179565	22.962439
708.157837	1219.419067	4650.644531	2134.568604	26.671215
708.479919	1167.927246	4589.790527	2164.995361	29.138163
708.802063	1193.673218	4643.622559	2069.033447	25.373135
709.124084	1170.267822	4615.536133	2073.714600	26.222828
709.446045	1240.483887	4655.325195	2108.822510	25.428373
709.768005	1235.802856	4517.233887	2141.590088	27.603420
710.089905	1172.608398	4645.963379	2111.163086	27.021559
710.411743	1151.543579	4587.449707	2090.098389	27.316078
710.733521	1132.819214	4730.222656	2218.827881	30.188683
711.055237	1221.759644	4713.838867	2125.206299	25.871311
711.376953	1163.246216	4903.422363	2143.930664	26.220274
711.698669	1137.500366	4833.206055	2176.698242	28.119066
712.020203	1205.375854	4898.741211	2218.827881	27.439800
712.341797	1191.332642	4858.952148	2202.444092	27.568602
712.663330	1153.884033	4915.125000	2207.125000	28.002485
712.984741	1135.159790	4821.503418	2195.422363	28.761902
713.306213	1191.332642	4809.800781	2209.465576	28.137125
713.627563	1235.802856	4755.968262	2087.757813	24.202127
713.948914	1210.056885	4809.800781	2066.692871	23.797136
714.270142	1203.035278	4596.812012	2181.379150	28.827583
714.591431	1186.651611	4573.406738	2059.671387	25.777470
714.912598	1226.440674	4631.919922	2054.990234	24.329897
715.233704	1210.056885	4615.536133	2073.714600	25.360826
715.554749	1212.397461	4571.065918	2167.335938	28.432055
715.875793	1151.543579	4545.320313	2066.692871	26.965511
716.196838	1149.203003	4519.574219	2104.141602	28.333338
716.517822	1135.159790	4561.704102	2047.968628	26.639341
716.838684	1270.910889	4601.493164	2017.541748	22.417427
717.159546	1156.224609	4470.422852	2092.438965	28.248592
717.480347	1200.694824	4550.001465	2113.503662	27.253666
717.801086	1139.840820	4358.077148	2033.925415	27.781818
718.121826	1207.716431	4376.801758	2010.520142	25.332346
718.442444	1200.694824	4301.904297	2017.541748	26.339624
718.763123	1224.100098	4217.645020	2010.520142	26.270527
719.083618	1207.716431	4191.899414	2094.779297	29.725483
719.404236	1179.630005	4117.001953	1968.390503	26.852591
719.724670	1224.100098	4156.791504	2069.033447	28.810850
720.045105	1128.138184	3939.121582	1865.406860	26.228140
720.365479	1179.630005	3983.591553	1858.385254	24.207010
720.685852	1203.035278	3974.229492	1867.747437	23.986486
721.006104	1144.521973	3960.186279	1954.347290	28.761431
721.326294	1224.100098	3805.710938	1935.622925	27.561195
721.646484	1160.905640	3831.456787	1959.028320	29.886065
721.966614	1196.013672	3744.856934	1879.450073	26.813591
722.286743	1156.224609	3768.262451	1872.428467	27.419352
722.606750	1203.035278	3779.965088	1872.428467	25.976385
722.926758	1151.543579	3728.473389	1849.023193	27.066303
723.246765	1132.819214	3754.219238	1867.747437	28.035715
723.566650	1116.435547	3726.132813	1944.985107	31.748877
723.886536	1191.332642	3585.700684	1879.450073	28.738998
724.206299	1191.332642	3627.830322	1844.342041	26.801151
724.526123	1163.246216	3679.322021	1893.493286	29.023254
724.845764	1137.500366	3634.851807	1865.406860	29.147137
725.165527	1196.013672	3606.765381	1898.174438	29.126217
725.485107	1200.694824	3721.451660	1877.109619	26.833797
725.804688	1242.824463	3590.381592	1891.152832	27.617149
726.124207	1118.776001	3627.830322	1827.958374	28.264929
726.443665	1217.078491	3801.029785	1823.277222	23.460146
726.763123	1186.651611	3721.451660	1954.347290	30.286242
727.082520	1158.565186	3672.300537	1877.109619	28.584728
727.401855	1170.267822	3712.089600	1968.390503	31.399632
727.721069	1177.289429	3817.413574	1795.190796	23.404255
728.040283	1212.397461	3707.408447	1886.471680	27.016884
728.359558	1174.948853	3803.370361	1863.066406	26.179880
728.678711	1177.289429	3971.888916	1959.028320	27.973198
728.997803	1233.462280	3896.991943	1877.109619	24.165201
729.316833	1219.419067	3896.991943	1874.769043	24.475525
729.635864	1228.781250	3918.056641	1839.661011	22.715405
729.954834	1149.203003	3836.137939	1870.088013	26.829268
730.273682	1207.716431	3894.651367	1879.450073	24.999996
730.592590	1149.203003	3751.878662	1980.093140	31.924458
730.911316	1200.694824	3861.883789	1853.704224	24.538258
731.230103	1163.246216	3786.986572	1926.260864	29.081181
731.548828	1156.224609	3922.737793	1919.239258	27.580372
731.867554	1224.100098	3857.202637	1973.071533	28.444447
732.186096	1193.673218	3894.651367	1923.920288	27.036394
732.504639	1210.056885	3943.802490	1994.136353	28.681509
732.823242	1167.927246	3988.272705	1879.450073	25.228216
733.141724	1231.121704	3997.634766	1839.661011	21.996616
733.460083	1188.992065	3873.586426	1881.790649	25.806454
733.778503	1158.565186	4032.742920	1937.963501	27.117262
734.096924	1200.694824	3922.737793	1930.941895	26.827169
734.415161	1165.586792	3892.310791	1909.877075	27.296135
734.733398	1128.138184	3913.375488	1933.282471	28.907564
735.051514	1196.013672	3810.392090	1865.406860	25.604296
735.369690	1235.802856	3688.684082	1856.044800	25.286259
735.687805	1191.332642	3801.029785	1832.639404	24.573990
736.005859	1191.332642	3609.105957	1834.979980	26.621490
736.323853	1139.840820	3585.700684	1762.423340	25.454546
736.641785	1153.884033	3531.868164	1970.730957	34.350395
736.959656	1170.267822	3566.976318	1816.255615	26.953123
737.277588	1177.289429	3541.230469	1788.169189	25.841583
737.595337	1207.716431	3449.949463	1827.958374	27.661798
737.913086	1203.035278	3454.630615	1804.552979	26.715179
738.230774	1196.013672	3335.263184	1804.552979	28.446392
738.548523	1156.224609	3431.225342	1839.661011	30.041151
738.866089	1153.884033	3573.997803	1746.039551	24.468086
739.183655	1158.565186	3646.554443	1893.493286	29.539038
739.501160	1156.224609	3461.652100	1849.023193	30.050764
739.818604	1177.289429	3595.062744	1867.747437	28.557598
740.136108	1188.992065	3627.830322	1891.152832	28.790787
740.453491	1160.905640	3590.381592	1900.514893	30.443159
740.770752	1153.884033	3499.100830	1884.131226	31.137726
741.088013	1212.397461	3541.230469	1813.915161	25.829147
741.405212	1198.354248	3386.755127	1809.234009	27.914436
741.722473	1198.354248	3410.160400	1874.769043	30.582010
742.039612	1095.370728	3515.484619	1874.769043	32.205029
742.356689	1160.905640	3412.500977	1813.915161	29.002083
742.673706	1144.521973	3372.711914	1809.234009	29.831928
742.990662	1203.035278	3304.836426	1799.871948	28.396437
743.307617	1186.651611	3309.517334	1731.996338	25.689083
743.624573	1163.246216	3129.296143	1760.082764	30.357141
743.941345	1172.608398	3283.771484	1668.801880	23.503323
744.258179	1193.673218	3262.706787	1685.185669	23.755651
744.574890	1217.078491	3178.447510	1771.785522	28.281626
744.891602	1158.565186	3162.063721	1778.807129	30.957943
745.208252	1212.397461	3110.571777	1701.569458	25.770657
745.524902	1102.392334	3091.847656	1678.164063	28.941174
745.841370	1181.970459	3145.679932	1741.358521	28.486294
746.157959	1130.478760	3023.972168	1664.120850	28.182940
746.474365	1135.159790	3077.804443	1724.974731	30.361443
746.790771	1214.738037	3185.468994	1689.866699	24.109261
747.107178	1102.392334	2995.885742	1696.888306	31.396780
747.423462	1196.013672	3023.972168	1746.039551	30.089626
747.739746	1186.651611	3026.312500	1760.082764	31.170481
748.055908	1088.349121	3145.679932	1664.120850	27.986347
748.372070	1184.311035	3087.166504	1638.375000	23.862242
748.688171	1207.716431	3080.145020	1715.612671	27.125000
749.004333	1149.203003	3119.934082	1654.758667	25.653204
749.320374	1196.013672	3131.636719	1696.888306	25.876661
749.636292	1184.311035	3112.912354	1734.336914	28.519419
749.952209	1177.289429	3222.917480	1724.974731	26.773455
750.268066	1196.013672	3258.025635	1806.893555	29.625429
750.583984	1188.992065	3220.577148	1731.996338	26.728109
750.899719	1107.073364	3126.955566	1715.612671	30.127464
751.215454	1207.716431	3080.145020	1788.169189	30.999994
751.531128	1156.224609	3150.361084	1727.315308	28.638496
751.846741	1188.992065	3082.485352	1731.996338	28.677380
752.162415	1188.992065	3052.058594	1717.953125	28.391958
752.477905	1144.521973	2984.182861	1736.677490	32.188297
752.793335	1144.521973	3110.571777	1731.996338	29.880951
753.108826	1170.267822	3061.420654	1720.293701	29.084158
753.424255	1181.970459	3082.485352	1750.720703	29.926113
753.739563	1137.500366	3215.895996	1783.488159	31.081081
754.054871	1172.608398	3197.171631	1837.320435	32.832367
754.370056	1200.694824	3126.955566	1767.104370	29.404615
754.685242	1221.759644	3337.603760	1760.082764	25.442474
755.000488	1177.289429	3213.555420	1762.423340	28.735632
755.315552	1163.246216	3145.679932	1776.466553	30.932703
755.630615	1235.802856	3239.301270	1757.742310	26.051403
755.945557	1160.905640	3239.301270	1757.742310	28.716223
756.260559	1158.565186	3309.517334	1706.250488	25.462460
756.575500	1205.375854	3122.274658	1804.552979	31.257629
756.890320	1191.332642	3297.814697	1764.763916	27.222225
757.205139	1111.754395	3169.085205	1776.466553	32.309444
757.519836	1228.781250	3148.020508	1785.828735	29.024389
757.834656	1116.435547	3152.701416	1731.996338	30.229883
758.149292	1130.478760	3208.874268	1764.763916	30.518021
758.463867	1121.116577	3267.387695	1853.704224	34.133045
758.778442	1212.397461	3370.371338	1774.125977	26.030367
759.092896	1226.440674	3368.030762	1891.152832	31.038254
759.407471	1100.051758	3396.117188	1776.466553	29.459736
759.721863	1181.970459	3377.392822	1891.152832	32.302776
760.036194	1184.311035	3361.009277	1696.888306	23.548384
760.350464	1217.078491	3403.138916	1874.769043	30.085651
760.664734	1142.181396	3391.436035	1797.531372	29.136318
760.979004	1130.478760	3286.112061	1774.125977	29.858845
761.293152	1186.651611	3400.798340	1736.677490	24.841438
761.607300	1184.311035	3393.776611	1844.342041	29.872881
761.921387	1123.457153	3382.073975	1914.558105	35.025906
762.235413	1160.905640	3346.966064	1818.596191	30.085651
762.549438	1181.970459	3337.603760	1774.125977	27.470142
762.863281	1196.013672	3363.349609	1832.639404	29.373653
763.177185	1163.246216	3405.479248	1916.898682	33.611694
763.491028	1121.116577	3473.354980	1919.239258	33.930351
763.804871	1196.013672	3744.856934	1954.347290	29.752069
764.118530	1132.819214	4262.115234	2094.779297	30.740463
764.432190	1146.862427	4542.979492	2204.784668	31.150934
764.745850	1217.078491	4723.200684	2303.087158	30.974640
765.059448	1203.035278	4442.336426	2181.379150	30.202312
765.372986	1184.311035	4060.829346	1989.455322	27.990236
765.686523	1149.203003	4011.677979	1977.752563	28.945215
765.999939	1186.651611	3686.343750	2003.498535	32.677902
766.313293	1114.094971	3522.506104	1914.558105	33.236149
766.626709	1174.948853	3524.846680	1867.747437	29.482071
766.940002	1196.013672	3435.906250	1799.871948	26.959251
767.253235	1193.673218	3410.160400	1781.147583	26.504747
767.566406	1142.181396	3173.766357	1809.234009	32.834099
767.879517	1167.927246	3105.890869	1750.720703	30.072466
768.192688	1184.311035	3084.825928	1811.574585	33.004929
768.505676	1200.694824	3084.825928	1727.315308	27.950310
768.818665	1137.500366	2993.545166	1675.823486	29.003778
769.131592	1158.565186	2846.091309	1762.423340	35.783634
769.444458	1210.056885	2789.918457	1619.650635	25.925926
769.757385	1214.738037	2867.156250	1640.715454	25.779032
770.070190	1210.056885	2834.388672	1650.077637	27.089340
770.382935	1130.478760	2766.513184	1675.823486	33.333328
770.695618	1167.927246	2670.551270	1650.077637	32.087227
771.008240	1181.970459	2754.810547	1521.348145	21.577381
771.320923	1214.738037	2661.188965	1626.672241	28.478962
771.633423	1125.797607	2698.637695	1558.796753	27.529762
771.945923	1142.181396	2691.615967	1605.607422	29.909365
772.258362	1167.927246	2658.848389	1511.986084	23.076931
772.570862	1130.478760	2619.059326	1516.667114	25.943396
772.883179	1186.651611	2640.124268	1530.710327	23.671495
773.195496	1130.478760	2513.735352	1563.477783	31.302872
773.507751	1207.716431	2516.075928	1572.839966	27.906973
773.819946	1186.651611	2551.183838	1631.353394	32.590054
774.132141	1228.781250	2476.286621	1603.266968	30.018766
774.444214	1188.992065	2394.367920	1579.861572	32.427189
774.756287	1233.462280	2523.097412	1568.158936	25.952818
775.068298	1186.651611	2452.881348	1504.964478	25.138634
775.380249	1071.965332	2485.648926	1593.904785	36.920528
775.692200	1146.862427	2436.497559	1568.158936	32.667885
776.004028	1172.608398	2464.583984	1528.369751	27.536228
776.315857	1177.289429	2471.605713	1565.818359	30.018082
776.627563	1174.948853	2354.578857	1551.775146	31.944448
776.939392	1207.716431	2314.789795	1509.645508	27.272726
777.251038	1165.586792	2427.135498	1528.369751	28.756952
777.562683	1210.056885	2469.265137	1537.731934	26.022308
777.874146	1224.100098	2389.686768	1507.304932	24.297192
778.185669	1259.208130	2382.665283	1490.921143	20.624998
778.497192	1231.121704	2408.411133	1453.472656	18.886686
778.808655	1203.035278	2464.583984	1500.283325	23.562155
779.119995	1167.927246	2427.135498	1483.899536	25.092934
779.431274	1231.121704	2373.303223	1600.926392	32.377052
779.742554	1181.970459	2471.605713	1547.094116	28.312164
780.053772	1203.035278	2359.260010	1530.710327	28.340082
780.364929	1205.375854	2324.151855	1500.283325	26.359831
780.676086	1214.738037	2429.476074	1521.348145	25.240843
780.987122	1146.862427	2321.811279	1493.261719	29.482075
781.298218	1184.311035	2272.660156	1533.050903	32.043015
781.609192	1158.565186	2340.535645	1423.045654	22.376234
781.920105	1226.440674	2221.168213	1497.942871	27.294127
782.230957	1172.608398	2244.573730	1500.283325	30.567680
782.541748	1163.246216	2253.935791	1441.769897	25.536476
782.852600	1200.694824	2298.406006	1437.088867	21.535177
783.163330	1174.948853	2169.676514	1455.813110	28.235292
783.473938	1191.332642	2305.427490	1500.283325	27.731094
783.784607	1165.586792	2300.746582	1448.791504	24.948444
784.095154	1231.121704	2186.060303	1479.218506	25.980392
784.405701	1172.608398	2211.806152	1416.024048	23.423420
784.716187	1207.716431	2167.335938	1460.494263	26.341465
785.026611	1181.970459	2169.676514	1537.731934	36.018963
785.336914	1193.673218	2221.168213	1460.494263	25.968111
785.647339	1146.862427	2197.762939	1401.980835	24.276171
785.957581	1146.862427	2237.552002	1432.407837	26.180264
786.267761	1153.884033	2253.935791	1425.386230	24.680857
786.578003	1090.689575	2258.616943	1474.537476	32.865734
786.888123	1151.543579	2064.352539	1432.407837	30.769226
787.198181	1139.840820	2094.779297	1502.623901	37.990204
787.508240	1125.797607	2176.698242	1427.726685	28.730507
787.818176	1205.375854	2300.746582	1479.218506	24.999998
788.128113	1137.500366	2232.871094	1451.132080	28.632471
788.437988	1163.246216	2307.768066	1502.623901	29.652355
788.747864	1273.251343	2253.935791	1486.240112	21.718380
789.057617	1167.927246	2392.027344	1526.029297	29.254311
789.367310	1109.413940	2300.746582	1472.196899	30.451860
789.677002	1132.819214	2314.789795	1500.283325	31.089108
789.986694	1196.013672	2338.195068	1523.688721	28.688530
790.296204	1191.332642	2244.573730	1537.731934	32.888889
790.605713	1207.716431	2260.957520	1495.602295	27.333330
790.915222	1163.246216	2317.130371	1481.559082	27.586206
791.224670	1146.862427	2263.297852	1572.839966	38.155144
791.534119	1123.457153	2209.465576	1437.088867	28.879307
791.843384	1191.332642	2207.125000	1451.132080	25.576038
792.152649	1167.927246	2101.801025	1390.278198	23.809530
792.461853	1254.527100	2134.568604	1479.218506	25.531910
792.771057	1291.975708	2071.374023	1472.196899	23.123117
793.080200	1217.078491	2195.422363	1446.451050	23.444983
793.389282	1245.164917	2085.417236	1453.472656	24.791094
793.698303	1130.478760	2092.438965	1385.597046	26.520670
794.007263	1245.164917	1994.136353	1460.494263	28.750008
794.316162	1158.565186	1982.433716	1343.467407	22.443171
794.625061	1111.754395	2069.033447	1383.256592	28.361866
794.933960	1121.116577	2104.141602	1390.278198	27.380953
795.242676	1282.613525	2106.482178	1348.148560	7.954549
795.551392	1167.927246	2066.692871	1502.623901	37.239594
795.860107	1144.521973	2099.460449	1411.343018	27.941177
796.168762	1158.565186	2087.757813	1369.213379	22.670025
796.477356	1231.121704	2176.698242	1409.002441	18.811882
796.785828	1158.565186	2188.400879	1467.515869	29.999998
797.094299	1167.927246	2176.698242	1453.472656	28.306267
797.402771	1200.694824	2186.060303	1392.618652	19.477427
797.711121	1088.349121	2094.779297	1385.597046	29.534878
798.019409	1184.311035	2104.141602	1401.980835	23.664120
798.327698	1212.397461	2132.228027	1479.218506	29.007629
798.635925	1172.608398	2186.060303	1472.196899	29.561195
798.944153	1238.143311	2064.352539	1462.834717	27.195461
799.252258	1170.267822	2090.098389	1392.618652	24.173019
799.560303	1247.505493	2108.822510	1423.045654	20.380436
799.868347	1219.419067	2090.098389	1439.429443	25.268818
800.176392	1165.586792	2026.903809	1432.407837	30.978262
800.484253	1132.819214	2008.179565	1373.894409	27.540110
800.792114	1083.667969	2106.482178	1401.980835	31.121279
801.099976	1179.630005	2008.179565	1423.045654	29.378527
801.407715	1109.413940	2026.903809	1378.575439	29.336727
801.715454	1172.608398	1928.601318	1343.467407	22.600609
802.023132	1144.521973	1975.412109	1303.678345	19.154924
802.330750	1210.056885	1893.493286	1390.278198	26.369873
802.638306	1196.013672	1944.985107	1289.635132	12.500004
802.945801	1135.159790	1928.601318	1427.726685	36.873150
803.253296	1153.884033	1916.898682	1336.445801	23.926378
803.560730	1142.181396	2015.201172	1385.597046	27.882032
803.868103	1174.948853	2024.563354	1392.618652	25.619831
804.175354	1186.651611	1963.709351	1385.597046	25.602400
804.482727	1160.905640	1959.028320	1418.364624	32.258072
804.789917	1256.867676	1921.579712	1411.343018	23.239437
805.097046	1203.035278	1928.601318	1455.813110	34.838707
805.404175	1193.673218	2033.925415	1343.467407	17.827290
805.711243	1200.694824	2045.628174	1373.894409	20.498610
806.018311	1188.992065	1956.687744	1364.532227	22.865852
806.325256	1240.483887	1970.730957	1467.515869	31.089748
806.632202	1228.781250	2043.287598	1362.191772	16.379311
806.939026	1121.116577	2069.033447	1387.937622	28.148148
807.245850	1170.267822	1984.774170	1341.126953	20.977016
807.552673	1193.673218	2069.033447	1373.894409	20.588232
807.859375	1128.138184	1984.774170	1369.213379	28.142080
808.166016	1149.203003	1944.985107	1322.402588	21.764700
808.472595	1181.970459	1949.666138	1338.786377	20.426834
808.779175	1137.500366	1893.493286	1411.343018	36.222912
809.085693	1196.013672	1980.093140	1432.407837	30.149261
809.392151	1163.246216	1970.730957	1364.532227	24.927530
809.698547	1181.970459	1956.687744	1324.743164	18.429007
810.004883	1254.527100	1884.131226	1394.959229	22.304831
810.311218	1224.100098	1895.833862	1350.489014	18.815329
810.617493	1151.543579	1884.131226	1324.743164	23.642166
810.923645	1165.586792	1827.958374	1373.894409	31.448755
811.229797	1153.884033	1888.812256	1371.553833	29.617830
811.535889	1181.970459	1884.131226	1399.640259	30.999994
811.842041	1170.267822	1825.617798	1364.532227	29.642849
812.148010	1132.819214	1865.406860	1355.170166	30.351448
812.453918	1191.332642	1867.747437	1336.445801	21.453279
812.759827	1221.759644	1839.661011	1376.234985	25.000000
813.065735	1235.802856	1823.277222	1280.272949	7.569708
813.371521	1186.651611	1886.471680	1329.424194	20.401327
813.677246	1193.673218	1886.471680	1341.126953	21.283785
813.982971	1111.754395	1851.363647	1263.889282	20.569630
814.288574	1146.862427	1781.147583	1352.829590	32.472328
814.594177	1116.435547	1804.552979	1343.467407	32.993187
814.899780	1205.375854	1858.385254	1371.553833	25.448023
815.205261	1179.630005	1820.936768	1341.126953	25.182480
815.510620	1214.738037	1813.915161	1327.083740	18.749998
815.816101	1158.565186	1898.174438	1348.148560	25.632910
816.121460	1149.203003	1846.682617	1380.916016	33.221474
816.426697	1174.948853	1867.747437	1420.705078	35.472969
816.731995	1191.332642	1842.001587	1287.294556	14.748194
817.037109	1233.462280	1844.342041	1352.829590	19.540230
817.342224	1214.738037	1884.131226	1268.570313	8.041951
817.647400	1196.013672	1806.893555	1383.256592	30.651348
817.952393	1231.121704	1863.066406	1308.359375	12.222219
818.257385	1179.630005	1895.833862	1298.997314	16.666666
818.562317	1203.035278	1881.790649	1380.916016	26.206900
818.867249	1174.948853	1860.725830	1327.083740	22.184309
819.172058	1160.905640	1884.131226	1423.045654	36.245953
819.476807	1203.035278	1914.558105	1397.299805	27.302641
819.781555	1156.224609	1947.325684	1409.002441	31.952660
820.086182	1186.651611	1928.601318	1371.553833	24.921125
820.390930	1191.332642	2076.055176	1378.575439	21.164013
820.695435	1102.392334	2118.184814	1385.597046	27.880175
821.000000	1174.948853	2129.887451	1472.196899	31.127451
821.304443	1177.289429	2284.362793	1497.942871	28.964064
821.608826	1205.375854	2298.406006	1561.137329	32.548183
821.913269	1111.754395	2328.833008	1502.623901	32.115387
822.217590	1179.630005	2593.313477	1626.672241	31.622513
822.521790	1151.543579	3150.361084	1753.061157	30.093672
822.826050	1174.948853	4744.265625	2211.806152	29.049181
823.130249	1181.970459	6183.695313	2569.908203	27.749184
823.434326	1254.527100	6834.364258	2991.204590	31.124163
823.738403	1191.332642	6920.963867	2993.545166	31.454248
824.042419	1179.630005	6038.582031	2773.534668	32.803467
824.346375	1181.970459	5446.426270	2530.119141	31.613615
824.650330	1160.905640	4720.860352	2368.622070	33.925053
824.954163	1181.970459	4409.569336	2190.741455	31.254534
825.257935	1093.030151	4119.342773	2099.460449	33.255993
825.561707	1179.630005	3714.430176	2057.330811	34.626034
825.865417	1186.651611	3506.122314	1947.325684	32.795158
826.169128	1100.051758	3091.847656	1790.509766	34.665100
826.472717	1128.138184	2890.561523	1652.418213	29.747679
826.776245	1174.948853	2759.491455	1643.056030	29.542101
827.079773	1156.224609	2803.961670	1746.039551	35.795452
827.383240	1245.164917	2785.237305	1720.293701	30.851068
827.686584	1177.289429	3129.296143	1806.893555	32.254200
827.989990	1167.927246	3396.117188	1870.088013	31.512608
828.293213	1167.927246	3707.408447	1975.412109	31.797237
828.596436	1090.689575	3606.765381	1898.174438	32.093029
828.899719	1214.738037	3346.966064	1837.320435	29.198679
829.202820	1228.781250	2951.415527	1771.785522	31.521738
829.505920	1177.289429	2834.388672	1706.250488	31.920904
829.808960	1198.354248	2623.740479	1537.731934	23.809525
830.111938	1184.311035	2551.183838	1549.434570	26.712328
830.414917	1139.840820	2370.962646	1507.304932	29.847908
830.717773	1135.159790	2303.087158	1483.899536	29.859713
831.020630	1172.608398	2129.887451	1462.834717	30.317839
831.323364	1184.311035	2031.584961	1448.791504	31.215462
831.626099	1118.776001	1914.558105	1376.234985	32.352951
831.928833	1160.905640	1827.958374	1394.959229	35.087719
832.231384	1125.797607	1874.769043	1359.851196	31.250002
832.533997	1212.397461	1734.336914	1345.807983	25.560535
832.836487	1156.224609	1916.898682	1327.083740	22.461542
833.139038	1233.462280	1893.493286	1366.872803	20.212767
833.441406	1163.246216	1961.368896	1390.278198	28.445749
833.743774	1165.586792	1961.368896	1366.872803	25.294111
834.046082	1158.565186	2022.222778	1458.153687	34.688343
834.348328	1093.030151	2392.027344	1404.321411	23.963966
834.650574	1224.100098	2590.972900	1603.266968	27.739733
834.952759	1217.078491	2686.934814	1584.542603	25.000002
835.254883	1188.992065	2700.978027	1600.926392	27.244587
835.556885	1142.181396	2675.232178	1516.667114	24.427483
835.858948	1228.781250	2459.903076	1643.056030	33.650185
836.160889	1181.970459	2340.535645	1558.796753	32.525257
836.462769	1163.246216	2244.573730	1516.667114	32.683983
836.764648	1249.846069	2054.990234	1427.726685	22.093014
837.066406	1233.462280	2111.163086	1504.964478	30.933342
837.368225	1158.565186	1966.049927	1404.321411	30.434782
837.669922	1177.289429	1959.028320	1369.213379	24.550901
837.971497	1116.435547	1804.552979	1437.088867	46.598633
838.273071	1181.970459	1774.125977	1362.191772	30.434793
838.574646	1170.267822	1792.850342	1322.402588	24.436081
838.876221	1125.797607	1699.228882	1352.829590	39.591839
839.177612	1172.608398	1701.569458	1383.256592	39.823006
839.478943	1118.776001	1769.444946	1338.786377	33.812950
839.780334	1256.867676	1734.336914	1327.083740	14.705882
840.081604	1219.419067	1736.677490	1233.462280	2.714932
840.382813	1104.732788	1713.272095	1268.570313	26.923080
840.683960	1235.802856	1757.742310	1324.743164	17.040350
840.985107	1165.586792	1881.790649	1341.126953	24.509804
841.286194	1167.927246	1823.277222	1263.889282	14.642869
841.587280	1214.738037	1816.255615	1298.997314	14.007783
841.888245	1151.543579	1830.298828	1296.656738	21.379305
842.189148	1158.565186	1710.931519	1263.889282	19.067799
842.489990	1102.392334	1715.612671	1306.018921	33.206104
842.790771	1102.392334	1706.250488	1320.062134	36.046513
843.091614	1107.073364	1678.164063	1322.402588	37.704906
843.392273	1153.884033	1654.758667	1261.548706	21.495333
843.692932	1158.565186	1640.715454	1226.440674	14.077662
843.993530	1125.797607	1629.012817	1275.591919	29.767445
844.294067	1128.138184	1607.947998	1308.359375	37.560963
844.594604	1139.840820	1507.304932	1219.419067	21.656059
844.895081	1149.203003	1488.580688	1210.056885	17.931021
845.195435	1174.948853	1502.623901	1226.440674	15.714294
845.495789	1165.586792	1474.537476	1196.013672	9.848458
845.796143	1179.630005	1516.667114	1233.462280	15.972210
846.096375	1170.267822	1465.175293	1228.781250	19.841284
846.396545	1184.311035	1568.158936	1228.781250	11.585374
846.696655	1160.905640	1523.688721	1238.143311	21.290318
846.996704	1210.056885	1507.304932	1179.630005	-10.236192
847.296875	1146.862427	1397.299805	1207.716431	24.299089
847.596802	1177.289429	1528.369751	1256.867676	22.666677
847.896729	1170.267822	1493.261719	1238.143311	21.014481
848.196594	1118.776001	1434.748291	1205.375854	27.407421
848.496399	1123.457153	1406.661865	1226.440674	36.363632
848.796204	1181.970459	1401.980835	1252.186523	31.914888
849.095886	1247.505493	1469.856323	1240.483887	-3.157895
849.395569	1181.970459	1437.088867	1294.316162	44.036690
849.695190	1146.862427	1341.126953	1249.846069	53.012070
849.994812	1153.884033	1528.369751	1235.802856	21.875019
850.294312	1174.948853	1413.683472	1240.483887	27.450998
850.593750	1203.035278	1488.580688	1179.630005	-8.196691
850.893188	1146.862427	1462.834717	1296.656738	47.407421
851.192505	1179.630005	1446.451050	1282.613525	38.596478
851.491821	1191.332642	1460.494263	1146.862427	-16.521751
851.791077	1184.311035	1479.218506	1233.462280	16.666666
852.090271	1071.965332	1439.429443	1137.500366	17.834404
852.389404	1245.164917	1418.364624	1170.267822	-43.243198
852.688477	1125.797607	1444.110474	1270.910889	45.588257
852.987549	1121.116577	1446.451050	1172.608398	15.827349
853.286560	1135.159790	1383.256592	1273.251343	55.660351
853.585510	1181.970459	1432.407837	1193.673218	4.672928
853.884399	1111.754395	1387.937622	1254.527100	51.694923
854.183228	1167.927246	1490.921143	1198.354248	9.420302
854.481995	1151.543579	1458.153687	1191.332642	12.977088
854.780701	1144.521973	1497.942871	1121.116577	-6.622527
855.079346	1153.884033	1404.321411	1200.694824	18.691616
855.377991	1193.673218	1324.743164	1242.824463	37.500011
855.676636	1188.992065	1427.726685	1221.759644	13.725524
855.975098	1198.354248	1416.024048	1226.440674	12.903226
856.273560	1118.776001	1451.132080	1203.035278	25.352110
856.571960	1181.970459	1427.726685	1144.521973	-15.238062
856.870300	1125.797607	1497.942871	1247.505493	32.704403
857.168701	1142.181396	1476.877930	1280.272949	41.258736
857.466919	1144.521973	1451.132080	1196.013672	16.793869
857.765076	1224.100098	1406.661865	1196.013672	-15.384615
858.063232	1132.819214	1362.191772	1280.272949	64.285690
858.361389	1341.126953	1640.715454	1490.921143	49.999981
858.659424	1212.397461	1493.261719	1207.716431	-1.666652
858.957397	1181.970459	1521.348145	1254.527100	21.379320
859.255310	1135.159790	1430.067261	1245.164917	37.301575
859.553223	1242.824463	1420.705078	1291.975708	27.631592
859.851074	1233.462280	1392.618652	1156.224609	-48.529423
860.148865	1135.159790	1348.148560	1221.759644	40.659351
860.446594	1179.630005	1376.234985	1193.673218	7.142857
860.744263	1174.948853	1378.575439	1228.781250	26.436821
861.041870	1186.651611	1432.407837	1210.056885	9.523776
861.339478	1137.500366	1399.640259	1233.462280	36.607140
861.636963	1151.543579	1376.234985	1214.738037	28.125000
861.934448	1163.246216	1437.088867	1249.846069	31.623947
862.231873	1188.992065	1394.959229	1221.759644	15.909127
862.529236	1149.203003	1406.661865	1235.802856	33.636383
862.826538	1146.862427	1409.002441	1217.078491	26.785709
863.123840	1235.802856	1451.132080	1170.267822	-30.434807
863.421021	1217.078491	1413.683472	1181.970459	-17.857143
863.718140	1191.332642	1446.451050	1170.267822	-8.256880
864.015259	1252.186523	1439.429443	1205.375854	-24.999968
864.312317	1153.884033	1437.088867	1205.375854	18.181829
864.609314	1165.586792	1385.597046	1179.630005	6.382981
864.906189	1165.586792	1380.916016	1160.905640	-2.173951
865.203064	1100.051758	1413.683472	1193.673218	29.850763
865.499939	1170.267822	1423.045654	1235.802856	25.925941
865.796692	1130.478760	1418.364624	1231.121704	34.959320
866.093445	1212.397461	1383.256592	1231.121704	10.958878
866.390137	1081.327515	1385.597046	1144.521973	20.769236
866.686707	1153.884033	1467.515869	1256.867676	32.835838
866.983337	1177.289429	1394.959229	1207.716431	13.978514
867.279785	1167.927246	1306.018921	1210.056885	30.508457
867.576233	1167.927246	1366.872803	1163.246216	-2.352920
867.872681	1179.630005	1380.916016	1186.651611	3.488373
868.169067	1200.694824	1399.640259	1200.694824	0.000000
868.465393	1151.543579	1390.278198	1135.159790	-6.862762
868.761597	1139.840820	1430.067261	1128.138184	-4.032243
869.057800	1207.716431	1427.726685	1158.565186	-22.340433
869.353943	1156.224609	1401.980835	1205.375854	20.000000
869.650085	1191.332642	1397.299805	1240.483887	23.863632
869.946106	1170.267822	1418.364624	1221.759644	20.754730
870.242065	1181.970459	1420.705078	1212.397461	12.745115
870.537964	1144.521973	1416.024048	1181.970459	13.793076
870.833862	1167.927246	1432.407837	1196.013672	10.619466
871.129761	1167.927246	1348.148560	1188.992065	11.688307
871.425476	1214.738037	1383.256592	1240.483887	15.277754
871.721252	1165.586792	1441.769897	1174.948853	3.389802
872.016907	1193.673218	1404.321411	1181.970459	-5.555594
872.312500	1235.802856	1390.278198	1228.781250	-4.545455
872.608093	1203.035278	1434.748291	1210.056885	3.030303
872.903564	1160.905640	1432.407837	1224.100098	23.275856
873.198975	1219.419067	1320.062134	1198.354248	-20.930223
873.494446	1186.651611	1434.748291	1186.651611	0.000000
873.789795	1165.586792	1427.726685	1219.419067	20.535706
874.085083	1181.970459	1387.937622	1170.267822	-5.681798
874.380310	1184.311035	1394.959229	1254.527100	33.333332
874.675476	1188.992065	1397.299805	1231.121704	20.224710
874.970581	1139.840820	1446.451050	1203.035278	20.610682
875.265747	1219.419067	1446.451050	1247.505493	12.371132
875.560791	1174.948853	1345.807983	1224.100098	28.767117
875.855713	1139.840820	1430.067261	1224.100098	29.032253
876.150635	1193.673218	1380.916016	1163.246216	-16.250025
876.445557	1090.689575	1425.386230	1191.332642	30.069935
876.740356	1156.224609	1455.813110	1174.948853	6.249987
877.035156	1177.289429	1338.786377	1245.164917	42.028961
877.329834	1160.905640	1385.597046	1280.272949	53.125000
877.624451	1219.419067	1399.640259	1231.121704	6.493485
877.919067	1142.181396	1441.769897	1214.738037	24.218767
878.213623	1149.203003	1380.916016	1249.846069	43.434361
878.508118	1221.759644	1460.494263	1151.543579	-29.411764
878.802551	1191.332642	1376.234985	1282.613525	49.367077
879.096924	1144.521973	1401.980835	1186.651611	16.363640
879.391357	1139.840820	1462.834717	1160.905640	6.521739
879.685608	1226.440674	1418.364624	1179.630005	-24.390217
879.979797	1219.419067	1373.894409	1240.483887	13.636364
880.273987	1219.419067	1526.029297	1233.462280	4.580152
880.568115	1247.505493	1423.045654	1200.694824	-26.666643
880.862244	1158.565186	1582.202148	1235.802856	18.232042
881.156189	1160.905640	1507.304932	1245.164917	24.324322
881.450195	1107.073364	1607.947998	1217.078491	21.962606
881.744019	1198.354248	1689.866699	1254.527100	11.428572
882.037964	1167.927246	1867.747437	1329.424194	23.076920
882.331726	1181.970459	2186.060303	1495.602295	31.235435
882.625488	1135.159790	2562.886475	1596.245361	32.295086
882.919128	1163.246216	2953.755859	1650.077637	27.189545
883.212769	1172.608398	3131.636719	1795.190796	31.780163
883.506470	1174.948853	3110.571777	1825.617798	33.615479
883.799927	1109.413940	3115.252930	1666.461426	27.771296
884.093445	1132.819214	2808.642822	1778.807129	38.547489
884.386841	1233.462280	2775.875244	1633.693848	25.948406
884.680237	1128.138184	2612.037842	1682.845093	37.381699
884.973572	1160.905640	2366.281494	1561.137329	33.203892
885.266846	1146.862427	2265.638428	1453.472656	27.405865
885.559998	1118.776001	2024.563354	1420.705078	33.333328
885.853149	1240.483887	1860.725830	1390.278198	24.150948
886.146301	1256.867676	1750.720703	1273.251343	3.317519
886.439331	1193.673218	1689.866699	1261.548706	13.679238
>>>>>End Processed Spectral Data<<<<<
