##TITLE= SPECTRASUITE EXPORTED SPECTRUM
##DATA TYPE= LINK
##BLOCKS= 3
##ORIGIN= OCEANOPTICS EXPORT
##OWNER= hugo
##TITLE= SPECTRASUITE EXPORTED SPECTRA: PROCESSED SPECTRUM
##JCAMP-DX= 5 $$EXPORTED SPECTRASUITE FILE
##DATA TYPE= UV/VIS SPECTRUM
##SAMPLE DESCRIPTION= PROCESSED SPECTRUM
##BLOCK_ID=1
##ORIGIN= OCEANOPTICS EXPORT
##OWNER= hugo
##SPECTROMETER/DATA SYSTEM= OCEANOPTICS EXPORT
##DATA PROCESSING= DARK:Yes REFERENCE:Yes
##DATA PROCESSING= BOXCAR:0 ELECTRICAL DARK: false
##.ACQUISITION TIME= 400
##.AVERAGES= 5
##XUNITS= NANOMETERS
##YUNITS= Transmission (%)
##XFACTOR= 1.0
##YFACTOR= 1.0
##FIRSTX= 176.36
##LASTX= 893.69
##FIRSTY= 32822.795
##MINY= 1630.183
##MAXY= 32822.795
##NPOINTS= 3648
##XYPOINTS= (XY..XY)
176.36, 32822.795
176.58, 32822.795
176.80, 32822.795
177.02, 1630.183
177.24, 1646.157
177.47, 2556.684
177.69, 2555.455
177.91, 3033.042
178.13, 2658.673
178.35, 2426.024
178.57, 2361.308
178.79, 2671.370
179.01, 2763.529
179.23, 2251.537
179.46, 2419.061
179.68, 2679.153
179.90, 2537.843
180.12, 2246.622
180.34, 2350.659
180.56, 2566.924
180.78, 2899.924
181.00, 2266.692
181.22, 2404.315
181.44, 2663.179
181.66, 2756.976
181.89, 2398.581
182.11, 2259.729
182.33, 2690.212
182.55, 3147.728
182.77, 2421.928
182.99, 2529.651
183.21, 2335.913
183.43, 2659.492
183.65, 2277.751
183.87, 2182.315
184.09, 2893.780
184.31, 2827.835
184.53, 2273.655
184.76, 2276.522
184.98, 2599.282
185.20, 2927.367
185.42, 2419.470
185.64, 2262.596
185.86, 2992.082
186.08, 3304.602
186.30, 2241.297
186.52, 2255.633
186.74, 2848.725
186.96, 2783.190
187.18, 2360.489
187.40, 2201.976
187.62, 2997.817
187.84, 2981.433
188.06, 2398.171
188.28, 2307.651
188.51, 2923.271
188.73, 2979.795
188.95, 2350.249
189.17, 2421.518
189.39, 2834.798
189.61, 2810.223
189.83, 2432.987
190.05, 2380.559
190.27, 3067.857
190.49, 2810.632
190.71, 2224.094
190.93, 2249.079
191.15, 2517.773
191.37, 2833.160
191.59, 2361.308
191.81, 2433.396
192.03, 2693.488
192.25, 2881.082
192.47, 2242.116
192.69, 2346.563
192.91, 2771.721
193.13, 2774.998
193.35, 2260.548
193.57, 2487.872
193.79, 2568.562
194.01, 2977.337
194.23, 2344.105
194.45, 2264.644
194.67, 2940.064
194.89, 2577.573
195.11, 2268.330
195.33, 2148.319
195.55, 2694.717
195.77, 2829.474
195.99, 2372.777
196.21, 2317.891
196.43, 2841.761
196.65, 2647.614
196.87, 2461.249
197.09, 2316.253
197.31, 2951.123
197.53, 2980.614
197.75, 2374.415
197.97, 2373.186
198.19, 2956.448
198.41, 3117.008
198.63, 2321.577
198.85, 2323.625
199.07, 2925.728
199.29, 2542.758
199.51, 2356.802
199.73, 2462.068
199.95, 2574.706
200.17, 2844.219
200.39, 2396.533
200.61, 2416.603
200.83, 2606.245
201.05, 2891.732
201.27, 2253.175
201.49, 2338.780
201.71, 2956.448
201.93, 2925.319
202.15, 2308.470
202.37, 2327.312
202.59, 2869.204
202.81, 2679.972
203.03, 2373.596
203.25, 2351.887
203.47, 2686.525
203.69, 2729.942
203.91, 2372.777
204.13, 2230.238
204.35, 2547.264
204.57, 3017.068
204.79, 2279.799
205.01, 2262.186
205.23, 2929.005
205.45, 2703.728
205.67, 2125.382
205.89, 2326.492
206.10, 2929.414
206.32, 2491.149
206.54, 2240.068
206.76, 2315.843
206.98, 2764.348
207.20, 2591.500
207.42, 2346.563
207.64, 2158.559
207.86, 2602.149
208.08, 3203.023
208.30, 2269.559
208.52, 2236.791
208.74, 2909.754
208.96, 2908.525
209.18, 2142.585
209.40, 2527.603
209.62, 2633.688
209.83, 2712.330
210.05, 2245.393
210.27, 2299.050
210.49, 2717.655
210.71, 2565.286
210.93, 2389.160
211.15, 2385.064
211.37, 2528.832
211.59, 2614.027
211.81, 2202.795
212.03, 2166.341
212.25, 2852.820
212.47, 2681.201
212.68, 2264.644
212.90, 2375.234
213.12, 2753.289
213.34, 2913.440
213.56, 2177.810
213.78, 2244.983
214.00, 3043.282
214.22, 2541.120
214.44, 2342.876
214.66, 2304.784
214.88, 2667.684
215.09, 2722.979
215.31, 2111.456
215.53, 2292.087
215.75, 2893.370
215.97, 2502.618
216.19, 2385.884
216.41, 2427.253
216.63, 2650.072
216.85, 3015.839
217.06, 2408.002
217.28, 2283.485
217.50, 2578.393
217.72, 2947.437
217.94, 2381.378
218.16, 2260.138
218.38, 2539.891
218.60, 2559.961
218.82, 2325.264
219.03, 2340.009
219.25, 2730.352
219.47, 2773.769
219.69, 2268.740
219.91, 2390.389
220.13, 3092.023
220.35, 2765.987
220.57, 2325.673
220.78, 2533.747
221.00, 2777.455
221.22, 2940.064
221.44, 2304.784
221.66, 2217.541
221.88, 3024.440
222.10, 2497.293
222.31, 2175.762
222.53, 2203.205
222.75, 2558.732
222.97, 2708.234
223.19, 2326.902
223.41, 2381.788
223.63, 2603.787
223.84, 3142.403
224.06, 2349.020
224.28, 2328.131
224.50, 2915.079
224.72, 2634.507
224.94, 2256.042
225.16, 2389.570
225.37, 3118.237
225.59, 2720.931
225.81, 2331.408
226.03, 2414.146
226.25, 3019.935
226.47, 2556.275
226.68, 2324.854
226.90, 2333.865
227.12, 2601.330
227.34, 2897.466
227.56, 2228.190
227.78, 2283.076
227.99, 2708.643
228.21, 2761.071
228.43, 2404.315
228.65, 2347.382
228.87, 2788.924
229.09, 2646.385
229.30, 2371.548
229.52, 2236.382
229.74, 2800.392
229.96, 2956.857
230.18, 2309.699
230.39, 2285.943
230.61, 2788.924
230.83, 2719.293
231.05, 2214.264
231.27, 2423.976
231.49, 2572.658
231.70, 2838.075
231.92, 2266.282
232.14, 2278.160
232.36, 2587.404
232.58, 2945.389
232.79, 2241.707
233.01, 2281.437
233.23, 2745.097
233.45, 2650.891
233.67, 2242.116
233.88, 2298.231
234.10, 3070.724
234.32, 2962.592
234.54, 2292.087
234.75, 2290.039
234.97, 2803.669
235.19, 3000.274
235.41, 2340.419
235.63, 2314.205
235.84, 3062.942
236.06, 2523.507
236.28, 2273.655
236.50, 2217.131
236.72, 2492.788
236.93, 2577.573
237.15, 2280.208
237.37, 2235.153
237.59, 2923.271
237.80, 2555.865
238.02, 2245.803
238.24, 2240.887
238.46, 2902.381
238.67, 3041.643
238.89, 2414.146
239.11, 2382.197
239.33, 2634.507
239.55, 2633.278
239.76, 2387.112
239.98, 2211.397
240.20, 2753.699
240.42, 2630.821
240.63, 2365.813
240.85, 2288.400
241.07, 2835.208
241.29, 2939.245
241.50, 2253.585
241.72, 2357.622
241.94, 2707.824
242.16, 3108.407
242.37, 2294.544
242.59, 2255.633
242.81, 2466.574
243.03, 2896.237
243.24, 2260.548
243.46, 2412.507
243.68, 2930.234
243.90, 2543.987
244.11, 2220.408
244.33, 2249.489
244.55, 2671.370
244.76, 2625.906
244.98, 2374.005
245.20, 2242.935
245.42, 2807.356
245.63, 2623.448
245.85, 2210.168
246.07, 2255.223
246.29, 2777.046
246.50, 2774.998
246.72, 2339.600
246.94, 2368.271
247.15, 2585.765
247.37, 3005.189
247.59, 2234.334
247.81, 2403.906
248.02, 2711.101
248.24, 2854.868
248.46, 2287.991
248.67, 2242.935
248.89, 2808.994
249.11, 2865.108
249.33, 2421.518
249.54, 2252.356
249.76, 2696.356
249.98, 2499.341
250.19, 2242.935
250.41, 2222.046
250.63, 2790.153
250.84, 2597.644
251.06, 2335.913
251.28, 2375.644
251.50, 2448.551
251.71, 2713.559
251.93, 2293.725
252.15, 2272.836
252.36, 2627.954
252.58, 3166.160
252.80, 2298.640
253.01, 2478.452
253.23, 2871.662
253.45, 2657.854
253.66, 2299.869
253.88, 2361.308
254.10, 2593.138
254.31, 2854.459
254.53, 2181.496
254.75, 2371.548
254.97, 3024.031
255.18, 2736.905
255.40, 2316.253
255.62, 2258.500
255.83, 2612.389
256.05, 2846.677
256.27, 2313.795
256.48, 2384.655
256.70, 2808.994
256.92, 2856.507
257.13, 2445.275
257.35, 2197.470
257.57, 2933.101
257.78, 2769.673
258.00, 2498.112
258.21, 2453.876
258.43, 2924.090
258.65, 2785.237
258.86, 2315.024
259.08, 2320.758
259.30, 2897.876
259.51, 3041.234
259.73, 2176.172
259.95, 2394.485
260.16, 2873.300
260.38, 3058.846
260.60, 2186.002
260.81, 2285.533
261.03, 2799.164
261.25, 2473.946
261.46, 2306.832
261.68, 2257.271
261.89, 2659.492
262.11, 2660.311
262.33, 2334.684
262.54, 2072.544
262.76, 2819.643
262.98, 2820.463
263.19, 2225.323
263.41, 2304.784
263.62, 2645.976
263.84, 2738.953
264.06, 2304.784
264.27, 2273.245
264.49, 2739.773
264.71, 2696.765
264.92, 2354.754
265.14, 2364.994
265.35, 2806.946
265.57, 2759.433
265.79, 2306.832
266.00, 2355.164
266.22, 3003.141
266.43, 2533.747
266.65, 2387.522
266.87, 2168.389
267.08, 2391.208
267.30, 2460.430
267.51, 2429.710
267.73, 2311.338
267.95, 3050.245
268.16, 2581.260
268.38, 2302.326
268.59, 2405.544
268.81, 2725.437
269.03, 2893.780
269.24, 2262.186
269.46, 2359.260
269.67, 2697.175
269.89, 2649.662
270.11, 2325.264
270.32, 2378.511
270.54, 2645.976
270.75, 3192.783
270.97, 2180.677
271.19, 2264.234
271.40, 2659.083
271.62, 2504.666
271.83, 2181.496
272.05, 2156.511
272.26, 2756.566
272.48, 2816.776
272.70, 2422.337
272.91, 2365.814
273.13, 2815.138
273.34, 2853.230
273.56, 2358.850
273.77, 2379.330
273.99, 3092.842
274.21, 3113.322
274.42, 2542.348
274.64, 2427.253
274.85, 2741.001
275.07, 2627.544
275.28, 2378.920
275.50, 2476.813
275.71, 2560.371
275.93, 2519.002
276.15, 2461.658
276.36, 2441.998
276.58, 2908.525
276.79, 2640.241
277.01, 2434.625
277.22, 2494.836
277.44, 3290.676
277.65, 2894.189
277.87, 2452.238
278.08, 2389.980
278.30, 3204.662
278.52, 2764.758
278.73, 2510.400
278.95, 2342.467
279.16, 2584.946
279.38, 2767.625
279.59, 2569.382
279.81, 2290.448
280.02, 2978.975
280.24, 3056.798
280.45, 2489.920
280.67, 2340.009
280.88, 2763.119
281.10, 2951.123
281.31, 2518.592
281.53, 2466.164
281.74, 2851.182
281.96, 2621.400
282.17, 2387.932
282.39, 2406.773
282.60, 2568.972
282.82, 2712.739
283.04, 2409.640
283.25, 2430.120
283.47, 2770.083
283.68, 2766.806
283.90, 2521.869
284.11, 2392.437
284.33, 2566.924
284.54, 2682.839
284.76, 2349.839
284.97, 2515.725
285.19, 2685.706
285.40, 2849.134
285.62, 2548.902
285.83, 2365.404
286.05, 2789.333
286.26, 2727.075
286.48, 2480.909
286.69, 2471.898
286.91, 2568.153
287.12, 3058.437
287.33, 2319.939
287.55, 2335.094
287.76, 2902.381
287.98, 2876.167
288.19, 2692.669
288.41, 2241.707
288.62, 2745.507
288.84, 2837.256
289.05, 2281.437
289.27, 2320.349
289.48, 2904.839
289.70, 2555.455
289.91, 2509.990
290.13, 2436.673
290.34, 2835.618
290.56, 2784.828
290.77, 2459.201
290.99, 2380.559
291.20, 2587.813
291.41, 2557.913
291.63, 2415.374
291.84, 2550.950
292.06, 2802.031
292.27, 2658.263
292.49, 2371.957
292.70, 2595.596
292.92, 2791.381
293.13, 2861.422
293.35, 2396.123
293.56, 2437.902
293.77, 2525.145
293.99, 2908.116
294.20, 2358.441
294.42, 2415.374
294.63, 2774.998
294.85, 2997.817
295.06, 2355.164
295.28, 2414.555
295.49, 2424.795
295.70, 2968.736
295.92, 2403.087
296.13, 2548.083
296.35, 2981.023
296.56, 2729.942
296.78, 2318.710
296.99, 2412.917
297.20, 2683.249
297.42, 2912.212
297.63, 2493.197
297.85, 2421.928
298.06, 2601.740
298.28, 2797.116
298.49, 2380.149
298.70, 2443.636
298.92, 2962.592
299.13, 2967.097
299.35, 2516.134
299.56, 2428.891
299.77, 2467.802
299.99, 2660.721
300.20, 2500.160
300.42, 2378.101
300.63, 2779.094
300.85, 2951.123
301.06, 2564.876
301.27, 2475.994
301.49, 2720.931
301.70, 2865.927
301.92, 2501.799
302.13, 2451.419
302.34, 2679.972
302.56, 2955.628
302.77, 2424.385
302.99, 2473.537
303.20, 2761.891
303.41, 2762.300
303.63, 2482.957
303.84, 2396.533
304.05, 2561.599
304.27, 2843.809
304.48, 2521.869
304.70, 2360.079
304.91, 2966.278
305.12, 2795.477
305.34, 2335.504
305.55, 2386.703
305.77, 2521.869
305.98, 2889.274
306.19, 2439.540
306.41, 2492.788
306.62, 2623.858
306.83, 2931.053
307.05, 2459.201
307.26, 2383.016
307.47, 3006.009
307.69, 3014.200
307.90, 2425.614
308.12, 2484.596
308.33, 2758.204
308.54, 3087.108
308.76, 2293.315
308.97, 2502.208
309.18, 2795.887
309.40, 2586.994
309.61, 2521.869
309.82, 2409.640
310.04, 2722.570
310.25, 2978.156
310.46, 2327.312
310.68, 2433.806
310.89, 2809.404
311.11, 2566.924
311.32, 2444.865
311.53, 2400.629
311.75, 2904.839
311.96, 2841.352
312.17, 2528.832
312.39, 2499.341
312.60, 2775.407
312.81, 2936.787
313.03, 2476.813
313.24, 2454.695
313.45, 2702.909
313.67, 2861.012
313.88, 2507.943
314.09, 2469.441
314.31, 2725.846
314.52, 2807.356
314.73, 2493.197
314.95, 2380.559
315.16, 3084.651
315.37, 2956.857
315.58, 2420.699
315.80, 2295.363
316.01, 2583.308
316.22, 2741.821
316.44, 2498.931
316.65, 2666.455
316.86, 2747.145
317.08, 2892.141
317.29, 2561.599
317.50, 2409.230
317.72, 2665.636
317.93, 2986.758
318.14, 2487.053
318.35, 2645.566
318.57, 2716.426
318.78, 3009.285
318.99, 2536.204
319.21, 2312.566
319.42, 2994.949
319.63, 2704.138
319.85, 2353.116
320.06, 2561.190
320.27, 2758.614
320.48, 2474.765
320.70, 2372.367
320.91, 2492.788
321.12, 2866.747
321.34, 2814.728
321.55, 2469.850
321.76, 2486.644
321.97, 2991.263
322.19, 2708.643
322.40, 2516.954
322.61, 2584.537
322.83, 2683.658
323.04, 2816.367
323.25, 2546.854
323.46, 2533.747
323.68, 2871.662
323.89, 2589.452
324.10, 2463.297
324.31, 2609.931
324.53, 2822.920
324.74, 3003.141
324.95, 2508.352
325.16, 2691.031
325.38, 2939.654
325.59, 2935.149
325.80, 2505.075
326.01, 2495.245
326.23, 3026.898
326.44, 2872.481
326.65, 2528.422
326.86, 2686.116
327.08, 2861.832
327.29, 2872.891
327.50, 2506.304
327.71, 2664.407
327.93, 2433.396
328.14, 2686.525
328.35, 2449.371
328.56, 2601.739
328.78, 2905.248
328.99, 3251.765
329.20, 2518.592
329.41, 2605.016
329.63, 2851.592
329.84, 2778.684
330.05, 2557.503
330.26, 2488.692
330.48, 2504.666
330.69, 2680.382
330.90, 2498.931
331.11, 2383.016
331.32, 2721.750
331.54, 2929.005
331.75, 2498.522
331.96, 2585.765
332.17, 3109.226
332.39, 2600.101
332.60, 2470.260
332.81, 2423.976
333.02, 2609.112
333.23, 2574.706
333.45, 2530.470
333.66, 2640.651
333.87, 2791.381
334.08, 2754.518
334.29, 2575.116
334.51, 2630.411
334.72, 2934.330
334.93, 2883.950
335.14, 2609.112
335.35, 2558.732
335.57, 2598.872
335.78, 2812.271
335.99, 2477.223
336.20, 2401.448
336.41, 2719.293
336.63, 3010.514
336.84, 2405.544
337.05, 2698.404
337.26, 3266.101
337.47, 2623.448
337.69, 2620.581
337.90, 2488.282
338.11, 2967.916
338.32, 3268.968
338.53, 2457.972
338.74, 2553.817
338.96, 3064.580
339.17, 3274.292
339.38, 2960.544
339.59, 2677.924
339.80, 2947.437
340.01, 3072.363
340.23, 2678.334
340.44, 2525.145
340.65, 2977.337
340.86, 2931.872
341.07, 2540.300
341.28, 2707.415
341.50, 3017.477
341.71, 2795.068
341.92, 2677.105
342.13, 2475.175
342.34, 2771.721
342.55, 2704.548
342.77, 2564.876
342.98, 2539.481
343.19, 2968.326
343.40, 3008.056
343.61, 2541.120
343.82, 2754.518
344.03, 2634.917
344.25, 3114.960
344.46, 2563.238
344.67, 2776.226
344.88, 2852.001
345.09, 2979.385
345.30, 2619.762
345.51, 2750.832
345.73, 3006.828
345.94, 2981.842
346.15, 2822.511
346.36, 2813.909
346.57, 3034.680
346.78, 2807.765
346.99, 2654.987
347.21, 2823.739
347.42, 3006.828
347.63, 2878.215
347.84, 2743.049
348.05, 2680.791
348.26, 2924.909
348.47, 2713.149
348.68, 2539.891
348.89, 2760.252
349.11, 3029.765
349.32, 3120.695
349.53, 2527.193
349.74, 2849.544
349.95, 2727.894
350.16, 3041.234
350.37, 2489.920
350.58, 2722.160
350.79, 3049.016
351.01, 3136.259
351.22, 2781.961
351.43, 2693.079
351.64, 3076.459
351.85, 3025.669
352.06, 2636.965
352.27, 2684.887
352.48, 2876.167
352.69, 3180.086
352.90, 2778.274
353.12, 2862.241
353.33, 2982.252
353.54, 2908.525
353.75, 2750.422
353.96, 2734.448
354.17, 2931.872
354.38, 3045.739
354.59, 2792.201
354.80, 2742.230
355.01, 2855.688
355.22, 2964.640
355.43, 2611.160
355.64, 2847.496
355.86, 3135.031
356.07, 3232.104
356.28, 2706.186
356.49, 2535.385
356.70, 2944.979
356.91, 3405.772
357.12, 2736.086
357.33, 2782.370
357.54, 3079.326
357.75, 3035.909
357.96, 2638.193
358.17, 2796.706
358.38, 2936.787
358.59, 3055.160
358.80, 2679.153
359.02, 2797.525
359.23, 2800.802
359.44, 3212.444
359.65, 2597.644
359.86, 2882.311
360.07, 2950.713
360.28, 2831.931
360.49, 2692.669
360.70, 2871.252
360.91, 2829.883
361.12, 3094.890
361.33, 2809.813
361.54, 2862.241
361.75, 3167.798
361.96, 2999.045
362.17, 2936.378
362.38, 2804.079
362.59, 3284.123
362.80, 3313.204
363.01, 2731.990
363.22, 2830.702
363.43, 2877.806
363.64, 3269.787
363.85, 2745.507
364.06, 2857.326
364.27, 2980.614
364.48, 3191.145
364.69, 2603.378
364.90, 2833.570
365.11, 3058.846
365.33, 3180.905
365.54, 2774.998
365.75, 3004.780
365.96, 3290.267
366.17, 3023.621
366.38, 2764.758
366.59, 2910.983
366.80, 2892.551
367.01, 3285.351
367.22, 2661.131
367.43, 2861.422
367.64, 3138.717
367.85, 3185.820
368.06, 2718.064
368.27, 2820.463
368.48, 3381.606
368.69, 2861.012
368.90, 2885.588
369.11, 2803.260
369.32, 3238.248
369.53, 3122.743
369.74, 2868.385
369.94, 2889.274
370.15, 3091.204
370.36, 3289.038
370.57, 2826.197
370.78, 2951.533
370.99, 3109.226
371.20, 3397.580
371.41, 2897.466
371.62, 2965.459
371.83, 3016.248
372.04, 3123.152
372.25, 2854.049
372.46, 2942.931
372.67, 3084.651
372.88, 3406.591
373.09, 2736.905
373.30, 2889.274
373.51, 3128.067
373.72, 3224.732
373.93, 2897.466
374.14, 2799.164
374.35, 3185.001
374.56, 3489.329
374.77, 2989.215
374.98, 2716.426
375.19, 3409.458
375.40, 3294.772
375.61, 2834.389
375.82, 3056.798
376.03, 3231.695
376.23, 3418.060
376.44, 2896.647
376.65, 2956.857
376.86, 3037.138
377.07, 3359.898
377.28, 3024.031
377.49, 2840.533
377.70, 3520.868
377.91, 3171.075
378.12, 2852.820
378.33, 2922.861
378.54, 2965.868
378.75, 3531.927
378.96, 2879.854
379.17, 2902.381
379.37, 3212.853
379.58, 3129.706
379.79, 2790.562
380.00, 2871.252
380.21, 3081.374
380.42, 3313.613
380.63, 2926.547
380.84, 2873.300
381.05, 3182.953
381.26, 3409.868
381.47, 2956.448
381.68, 3105.540
381.89, 3405.772
382.09, 3260.776
382.30, 3170.256
382.51, 3051.064
382.72, 3349.248
382.93, 3174.761
383.14, 2910.573
383.35, 3055.569
383.56, 3281.665
383.77, 3250.946
383.98, 2990.034
384.18, 3111.684
384.39, 3376.691
384.60, 3405.362
384.81, 2886.817
385.02, 2935.558
385.23, 3179.676
385.44, 3233.333
385.65, 2880.673
385.86, 3019.116
386.06, 3277.569
386.27, 3568.381
386.48, 3053.521
386.69, 3171.075
386.90, 3136.259
387.11, 3186.639
387.32, 3037.138
387.53, 2987.577
387.73, 3222.684
387.94, 3573.705
388.15, 3153.872
388.36, 3032.223
388.57, 3589.270
388.78, 3493.835
388.99, 3173.123
389.20, 2936.787
389.40, 4105.358
389.61, 3290.676
389.82, 3038.366
390.03, 2938.835
390.24, 3474.993
390.45, 3337.370
390.66, 3107.997
390.86, 3022.802
391.07, 3147.728
391.28, 3148.547
391.49, 2942.931
391.70, 2982.252
391.91, 3180.905
392.12, 3778.912
392.32, 2938.426
392.53, 3070.315
392.74, 3405.362
392.95, 3451.237
393.16, 2998.636
393.37, 3056.389
393.57, 3450.418
393.78, 3177.628
393.99, 3138.307
394.20, 3139.946
394.41, 3462.706
394.62, 3365.632
394.82, 3117.828
395.03, 3045.330
395.24, 3436.901
395.45, 3423.385
395.66, 3098.577
395.87, 3156.739
396.07, 3623.266
396.28, 3527.421
396.49, 3203.842
396.70, 3100.215
396.91, 3356.621
397.11, 3493.835
397.32, 2956.038
397.53, 3085.470
397.74, 3353.754
397.95, 3474.584
398.16, 3181.724
398.36, 3404.543
398.57, 3466.802
398.78, 3412.735
398.99, 3253.403
399.20, 3029.765
399.40, 3185.411
399.61, 3638.831
399.82, 3149.776
400.03, 3095.300
400.24, 3662.587
400.44, 3234.562
400.65, 3185.411
400.86, 3157.968
401.07, 3300.097
401.27, 3554.455
401.48, 3164.521
401.69, 3078.097
401.90, 3594.185
402.11, 3425.842
402.31, 3137.488
402.52, 3253.403
402.73, 3235.381
402.94, 3290.267
403.15, 3268.149
403.35, 3055.160
403.56, 3814.547
403.77, 3425.023
403.98, 3275.112
404.18, 3209.986
404.39, 3587.222
404.60, 3470.897
404.81, 3345.562
405.01, 3160.425
405.22, 3449.189
405.43, 3717.882
405.64, 3315.661
405.85, 3393.894
406.05, 3908.344
406.26, 3744.916
406.47, 3539.709
406.68, 3404.134
406.88, 4034.498
407.09, 3601.558
407.30, 3270.196
407.51, 3241.935
407.71, 3844.447
407.92, 3467.211
408.13, 3214.901
408.34, 3348.019
408.54, 3361.946
408.75, 3368.909
408.96, 3510.628
409.16, 3434.034
409.37, 3542.167
409.58, 3808.403
409.79, 3441.407
409.99, 3381.606
410.20, 3904.248
410.41, 3538.480
410.62, 3317.300
410.82, 3313.204
411.03, 3836.665
411.24, 3478.270
411.45, 3332.455
411.65, 3369.728
411.86, 3566.333
412.07, 3534.794
412.27, 3486.462
412.48, 3395.532
412.69, 3664.635
412.90, 3931.690
413.10, 3417.650
413.31, 3421.746
413.52, 3743.277
413.72, 3406.591
413.93, 3324.672
414.14, 3289.038
414.35, 3787.104
414.55, 3776.454
414.76, 3453.285
414.97, 3488.100
415.17, 3673.646
415.38, 3929.642
415.59, 3461.477
415.79, 3397.171
416.00, 4098.395
416.21, 3983.299
416.41, 3388.160
416.62, 3366.451
416.83, 4023.849
417.04, 4009.923
417.24, 3491.787
417.45, 3518.820
417.66, 3925.547
417.86, 3626.953
418.07, 3443.864
418.28, 3546.263
418.48, 4123.790
418.69, 3668.322
418.90, 3699.041
419.10, 3477.451
419.31, 3705.185
419.52, 3567.971
419.72, 3459.429
419.93, 3368.499
420.14, 3969.373
420.34, 3892.779
420.55, 3428.300
420.76, 3683.067
420.96, 3660.539
421.17, 3782.189
421.38, 3536.842
421.58, 3588.451
421.79, 3997.225
422.00, 3863.288
422.20, 3523.735
422.41, 3463.115
422.62, 3650.709
422.82, 4072.591
423.03, 3751.469
423.24, 3695.355
423.44, 3604.015
423.65, 3837.484
423.85, 3523.735
424.06, 3808.403
424.27, 4157.377
424.47, 3985.757
424.68, 4080.783
424.89, 3894.417
425.09, 4048.015
425.30, 4005.827
425.51, 3622.857
425.71, 3696.993
425.92, 3897.285
426.12, 4321.624
426.33, 3619.170
426.54, 3478.270
426.74, 4025.897
426.95, 3925.547
427.16, 3554.455
427.36, 3648.252
427.57, 3991.082
427.77, 4117.236
427.98, 3817.823
428.19, 3711.329
428.39, 3810.041
428.60, 4113.140
428.81, 3678.152
429.01, 3667.502
429.22, 4062.351
429.42, 3888.273
429.63, 3907.115
429.84, 3875.576
430.04, 3798.982
430.25, 4249.126
430.45, 3663.406
430.66, 3740.820
430.87, 3829.292
431.07, 3887.454
431.28, 3835.436
431.48, 3694.536
431.69, 3995.997
431.90, 3978.384
432.10, 3994.358
432.31, 3767.853
432.51, 4054.569
432.72, 4261.823
432.92, 3848.952
433.13, 3881.310
433.34, 4236.019
433.54, 4219.635
433.75, 3839.941
433.95, 3981.251
434.16, 4478.908
434.37, 3975.517
434.57, 3957.495
434.78, 3991.082
434.98, 4004.598
435.19, 4152.052
435.39, 3932.100
435.60, 3949.303
435.81, 4411.734
436.01, 3984.938
436.22, 3911.211
436.42, 3991.491
436.63, 4206.937
436.83, 4445.321
437.04, 4043.510
437.24, 4022.620
437.45, 4205.709
437.66, 4237.657
437.86, 3892.779
438.07, 3950.122
438.27, 4223.321
438.48, 4295.000
438.68, 4077.506
438.89, 4095.118
439.09, 4365.860
439.30, 4239.705
439.50, 4069.314
439.71, 4102.491
439.92, 4300.734
440.12, 4186.048
440.33, 3944.797
440.53, 4170.074
440.74, 4207.347
440.94, 4420.336
441.15, 4275.340
441.35, 4031.222
441.56, 4452.284
441.76, 4433.443
441.97, 4037.775
442.17, 4119.284
442.38, 4308.517
442.58, 4503.074
442.79, 4052.521
443.00, 4152.871
443.20, 4381.834
443.41, 4299.506
443.61, 3996.406
443.82, 4210.214
444.02, 4272.063
444.23, 4036.956
444.43, 4162.701
444.64, 4222.092
444.84, 4517.819
445.05, 4168.845
445.25, 4147.546
445.46, 4119.284
445.66, 4215.948
445.87, 4245.439
446.07, 4103.720
446.28, 4159.015
446.48, 4552.225
446.69, 4255.679
446.89, 4197.517
447.10, 4229.875
447.30, 4649.299
447.51, 4579.668
447.71, 4490.786
447.92, 4309.336
448.12, 4553.863
448.33, 4597.690
448.53, 4245.439
448.73, 4454.742
448.94, 5058.483
449.14, 4593.184
449.35, 4443.273
449.55, 4408.458
449.76, 4854.505
449.96, 4871.298
450.17, 4512.085
450.37, 4468.258
450.58, 5058.073
450.78, 4545.671
450.99, 4333.911
451.19, 4655.033
451.40, 4591.136
451.60, 4644.384
451.81, 4451.055
452.01, 4431.804
452.21, 4795.114
452.42, 4648.070
452.62, 4310.974
452.83, 4432.214
453.03, 4808.221
453.24, 4736.542
453.44, 4566.970
453.65, 4328.177
453.85, 5058.483
454.06, 4680.428
454.26, 4379.786
454.46, 4546.491
454.67, 4761.527
454.87, 4711.557
455.08, 4623.085
455.28, 4517.819
455.49, 4847.132
455.69, 5121.151
455.89, 4614.074
456.10, 4381.424
456.30, 5235.837
456.51, 4940.929
456.71, 4650.527
456.92, 4732.037
457.12, 5112.549
457.32, 4839.760
457.53, 4956.494
457.73, 4914.715
457.94, 5299.734
458.14, 4908.162
458.35, 4660.767
458.55, 4686.572
458.75, 5276.387
458.96, 5321.442
459.16, 4597.280
459.37, 4892.188
459.57, 4830.749
459.77, 5271.881
459.98, 4836.073
460.18, 4962.228
460.39, 5282.121
460.59, 4998.273
460.79, 4766.852
461.00, 4813.136
461.20, 5174.398
461.41, 5409.914
461.61, 4955.675
461.81, 5056.025
462.02, 5197.335
462.22, 5573.342
462.43, 5050.701
462.63, 4895.874
462.83, 5534.021
463.04, 5340.693
463.24, 5107.634
463.45, 5058.073
463.65, 5314.479
463.85, 5525.420
464.06, 4967.143
464.26, 5432.852
464.46, 5433.261
464.67, 5678.198
464.87, 5269.424
465.08, 5200.202
465.28, 5665.501
465.48, 5565.969
465.69, 5294.409
465.89, 5393.530
466.09, 6080.010
466.30, 6015.703
466.50, 5468.486
466.71, 5676.560
466.91, 6215.995
467.11, 6224.187
467.32, 5861.287
467.52, 5874.394
467.72, 6046.833
467.93, 5989.489
468.13, 6132.438
468.33, 5867.430
468.54, 6435.537
468.74, 6687.028
468.94, 6288.493
469.15, 6138.582
469.35, 6311.840
469.55, 6304.467
469.76, 6214.356
469.96, 6094.345
470.17, 6395.397
470.37, 6690.714
470.57, 6157.832
470.78, 6215.995
470.98, 6644.430
471.18, 6554.729
471.39, 6208.212
471.59, 6377.375
471.79, 6363.039
471.99, 6250.401
472.20, 6234.836
472.40, 6227.054
472.60, 6210.260
472.81, 6451.511
473.01, 6323.718
473.21, 6256.545
473.42, 6866.430
473.62, 6774.271
473.82, 6301.600
474.03, 6528.515
474.23, 6449.873
474.43, 6522.780
474.64, 5929.279
474.84, 6265.146
475.04, 6403.179
475.25, 6374.508
475.45, 5974.744
475.65, 5999.729
475.85, 5990.718
476.06, 6409.733
476.26, 5974.334
476.46, 5914.124
476.67, 6162.338
476.87, 6268.423
477.07, 5853.504
477.28, 5959.589
477.48, 6276.205
477.68, 6442.090
477.88, 5819.918
478.09, 6113.187
478.29, 6303.648
478.49, 6650.164
478.70, 6086.973
478.90, 6336.825
479.10, 6444.958
479.30, 6866.020
479.51, 6354.437
479.71, 6363.858
479.91, 6913.123
480.11, 7026.581
480.32, 6705.050
480.52, 6878.308
480.72, 7038.049
480.93, 6949.168
481.13, 6658.356
481.33, 6956.950
481.53, 7441.909
481.74, 7337.053
481.94, 6998.319
482.14, 7006.101
482.34, 7314.525
482.55, 7407.503
482.75, 7281.758
482.95, 7014.703
483.15, 7442.728
483.36, 7074.094
483.56, 7412.418
483.76, 6975.382
483.96, 7267.422
484.17, 7345.245
484.37, 6927.049
484.57, 6994.632
484.77, 7234.245
484.98, 7390.710
485.18, 6862.334
485.38, 6894.282
485.58, 7140.038
485.79, 7147.411
485.99, 6543.260
486.19, 6712.013
486.39, 7218.680
486.59, 6721.843
486.80, 6732.083
487.00, 6580.943
487.20, 7004.872
487.40, 6879.946
487.61, 6601.422
487.81, 6469.533
488.01, 6939.747
488.21, 6809.086
488.41, 6545.308
488.62, 6587.087
488.82, 6600.603
489.02, 6713.242
489.22, 6555.138
489.43, 6648.526
489.63, 7076.551
489.83, 6848.407
490.03, 6608.386
490.23, 6580.124
490.44, 6802.533
490.64, 7134.304
490.84, 6904.522
491.04, 6979.068
491.24, 7157.651
491.45, 7563.968
491.65, 7232.606
491.85, 7092.935
492.05, 7961.683
492.25, 7504.986
492.45, 7412.418
492.66, 7185.094
492.86, 7476.724
493.06, 7625.816
493.26, 7476.724
493.46, 7330.090
493.67, 8147.639
493.87, 7307.972
494.07, 7326.813
494.27, 7138.400
494.47, 7244.485
494.67, 7514.817
494.88, 7112.595
495.08, 7115.053
495.28, 7289.540
495.48, 7179.769
495.68, 6845.950
495.89, 6770.585
496.09, 6842.673
496.29, 7001.186
496.49, 6845.540
496.69, 6635.419
496.89, 6524.828
497.09, 6949.987
497.30, 6507.216
497.50, 6432.260
497.70, 6838.168
497.90, 7097.850
498.10, 6557.596
498.30, 6823.422
498.51, 6651.393
498.71, 6631.732
498.91, 6299.552
499.11, 6532.201
499.31, 6943.433
499.51, 6993.404
499.71, 6431.851
499.92, 6430.212
500.12, 6841.444
500.32, 6718.157
500.52, 6620.264
500.72, 6256.135
500.92, 6943.024
501.12, 6822.193
501.32, 6177.903
501.53, 6343.788
501.73, 6774.271
501.93, 6697.677
502.13, 6191.010
502.33, 6141.858
502.53, 6550.223
502.73, 6672.692
502.93, 6129.161
503.14, 6340.102
503.34, 6463.799
503.54, 6410.142
503.74, 6295.866
503.94, 6104.176
504.14, 6632.961
504.34, 6494.518
504.54, 6196.744
504.74, 6103.766
504.95, 6511.312
505.15, 6763.622
505.35, 6012.017
505.55, 6141.858
505.75, 6400.312
505.95, 6476.906
506.15, 6133.257
506.35, 6127.113
506.55, 6296.275
506.75, 6362.629
506.95, 6077.552
507.16, 6076.733
507.36, 6360.991
507.56, 6442.500
507.76, 5984.165
507.96, 6052.157
508.16, 6023.895
508.36, 6157.832
508.56, 5960.818
508.76, 5956.722
508.96, 6220.910
509.16, 6527.286
509.36, 5740.866
509.57, 5970.239
509.77, 6034.545
509.97, 6083.696
510.17, 5901.017
510.37, 5922.726
510.57, 5903.475
510.77, 5868.250
510.97, 5841.216
511.17, 5787.150
511.37, 6348.703
511.57, 6293.818
511.77, 5861.696
511.97, 5827.290
512.17, 6306.105
512.37, 6399.902
512.57, 5819.098
512.78, 5826.471
512.98, 6077.142
513.18, 5878.490
513.38, 5783.054
513.58, 5948.120
513.78, 6256.545
513.98, 6176.674
514.18, 6042.737
514.38, 5672.464
514.58, 5559.006
514.78, 5972.286
514.98, 5905.932
515.18, 5844.084
515.38, 6043.146
515.58, 5944.024
515.78, 5760.936
515.98, 5916.172
516.18, 6228.692
516.38, 6372.869
516.58, 5910.028
516.78, 5695.401
516.98, 5904.294
517.18, 6102.947
517.38, 5853.095
517.58, 5913.305
517.78, 6096.393
517.98, 6326.175
518.18, 5896.921
518.38, 5878.490
518.58, 6477.725
518.78, 6000.139
518.98, 5968.191
519.18, 5805.991
519.38, 6074.275
519.58, 5982.526
519.78, 5736.360
519.98, 5899.379
520.18, 6044.785
520.38, 6021.028
520.58, 5890.777
520.78, 5768.718
520.98, 5988.670
521.18, 6144.725
521.38, 5808.859
521.58, 5867.430
521.78, 6073.456
521.98, 6008.331
522.18, 5735.951
522.38, 5868.659
522.58, 5676.150
522.78, 6003.416
522.98, 5828.929
523.18, 5637.648
523.38, 5895.692
523.58, 5888.729
523.78, 5540.984
523.98, 5642.973
524.18, 5905.113
524.38, 5847.360
524.58, 5579.896
524.78, 5603.242
524.98, 5825.652
525.18, 5719.567
525.38, 5617.988
525.58, 5659.766
525.78, 5806.401
525.98, 5777.320
526.18, 5401.722
526.38, 5322.261
526.58, 5627.818
526.78, 5456.608
526.98, 5492.243
527.17, 5124.427
527.37, 5425.069
527.57, 5383.700
527.77, 5096.165
527.97, 5196.926
528.17, 5153.099
528.37, 5435.719
528.57, 5144.498
528.77, 5184.228
528.97, 5667.139
529.17, 5476.268
529.37, 5194.878
529.57, 5121.970
529.77, 5298.505
529.97, 5560.645
530.17, 5301.372
530.36, 5125.656
530.56, 5444.730
530.76, 5104.357
530.96, 5201.431
531.16, 5017.933
531.36, 5478.726
531.56, 5505.350
531.76, 4986.394
531.96, 4947.073
532.16, 5260.413
532.36, 5189.143
532.56, 4910.210
532.76, 5024.896
532.95, 5158.833
533.15, 5266.556
533.35, 5103.129
533.55, 4981.889
533.75, 5563.922
533.95, 5196.516
534.15, 4974.926
534.35, 5121.560
534.55, 5349.294
534.75, 5216.586
534.94, 4859.420
535.14, 4976.564
535.34, 5233.379
535.54, 5127.704
535.74, 5102.719
535.94, 4853.686
536.14, 5096.985
536.34, 5556.958
536.54, 5085.516
536.73, 4900.789
536.93, 5157.195
537.13, 5353.390
537.33, 4970.830
537.53, 4750.468
537.73, 4899.970
537.93, 4897.922
538.13, 4943.387
538.32, 4769.310
538.52, 4732.037
538.72, 4787.332
538.92, 4762.347
539.12, 4487.100
539.32, 5061.760
539.52, 4872.937
539.72, 4601.376
539.91, 4406.819
540.11, 4666.502
540.31, 4732.856
540.51, 4265.100
540.71, 4573.114
540.91, 4948.712
541.11, 4483.004
541.30, 4261.823
541.50, 4159.834
541.70, 4401.494
541.90, 4541.985
542.10, 4134.849
542.30, 4233.561
542.49, 4632.096
542.69, 4415.830
542.89, 4086.926
543.09, 4206.118
543.29, 4702.955
543.49, 4743.505
543.68, 4312.203
543.88, 4233.971
544.08, 4514.952
544.28, 4388.387
544.48, 4283.531
544.68, 4056.207
544.87, 4531.745
545.07, 4371.594
545.27, 4015.657
545.47, 3999.273
545.67, 4166.797
545.87, 4276.568
546.06, 3942.340
546.26, 3986.166
546.46, 4224.960
546.66, 4270.015
546.86, 4442.863
547.05, 3967.325
547.25, 4452.694
547.45, 4725.483
547.65, 3979.203
547.85, 3821.919
548.04, 4523.963
548.24, 4458.838
548.44, 4103.720
548.64, 4079.554
548.84, 4573.524
549.03, 4097.985
549.23, 4000.912
549.43, 4070.952
549.63, 4248.306
549.83, 4358.077
550.02, 4032.450
550.22, 4019.753
550.42, 4283.531
550.62, 4383.472
550.82, 3832.978
551.01, 3985.757
551.21, 4199.565
551.41, 4560.007
551.61, 3832.978
551.80, 4027.535
552.00, 4091.022
552.20, 4281.893
552.40, 3779.322
552.60, 4012.790
552.79, 4265.919
552.99, 4204.889
553.19, 3998.454
553.39, 3710.510
553.58, 4088.565
553.78, 3769.082
553.98, 3982.890
554.18, 3735.495
554.37, 3792.019
554.57, 4001.731
554.77, 3903.428
554.97, 3913.259
555.16, 4222.092
555.36, 4515.771
555.56, 3703.547
555.76, 3724.026
555.95, 4399.037
556.15, 3941.930
556.35, 3801.030
556.55, 3744.506
556.74, 3660.539
556.94, 3841.580
557.14, 3558.960
557.34, 3647.432
557.53, 3928.414
557.73, 3889.912
557.93, 3608.931
558.13, 3496.702
558.32, 3829.292
558.52, 3855.506
558.72, 3436.492
558.92, 3619.990
559.11, 3889.912
559.31, 3894.008
559.51, 3638.012
559.70, 3540.119
559.90, 3787.923
560.10, 3638.831
560.30, 3439.359
560.49, 3632.687
560.69, 3713.377
560.89, 4033.270
561.08, 3440.588
561.28, 3484.824
561.48, 3742.048
561.68, 3828.063
561.87, 3531.517
562.07, 3518.410
562.27, 3517.591
562.46, 3780.550
562.66, 3516.362
562.86, 3443.045
563.05, 3679.790
563.25, 3555.683
563.45, 3336.141
563.65, 3765.805
563.84, 3908.344
564.04, 3703.137
564.24, 3500.388
564.43, 3454.514
564.63, 3948.074
564.83, 3744.916
565.02, 3409.868
565.22, 3444.683
565.42, 3540.938
565.61, 3744.096
565.81, 3397.990
566.01, 3568.790
566.20, 3599.100
566.40, 3444.683
566.60, 3441.816
566.79, 3297.230
566.99, 3809.631
567.19, 3652.757
567.38, 3463.934
567.58, 3341.466
567.78, 3610.159
567.97, 3489.739
568.17, 3131.344
568.37, 3356.211
568.56, 3913.259
568.76, 3507.351
568.96, 3390.617
569.15, 3411.506
569.35, 4895.874
569.55, 3872.299
569.74, 3300.506
569.94, 3432.805
570.14, 3683.067
570.33, 3631.049
570.53, 3208.757
570.73, 3246.850
570.92, 3414.783
571.12, 3555.274
571.31, 3077.278
571.51, 3309.927
571.71, 3591.728
571.90, 3820.690
572.10, 3214.901
572.30, 3289.038
572.49, 3884.178
572.69, 3746.554
572.88, 3360.717
573.08, 3147.318
573.28, 3923.089
573.47, 3674.056
573.67, 3184.591
573.87, 3200.156
574.06, 3498.340
574.26, 3646.204
574.45, 3264.053
574.65, 3156.329
574.85, 3724.026
575.04, 3533.565
575.24, 3417.650
575.44, 3212.853
575.63, 3646.613
575.83, 3292.724
576.02, 3195.241
576.22, 3198.927
576.42, 3634.735
576.61, 3447.141
576.81, 3104.311
577.00, 3307.470
577.20, 3522.097
577.40, 3484.414
577.59, 3015.429
577.79, 3236.200
577.98, 3434.444
578.18, 3319.348
578.37, 3232.104
578.57, 3006.828
578.77, 3221.045
578.96, 3156.739
579.16, 2962.592
579.35, 2979.385
579.55, 3213.673
579.75, 3154.281
579.94, 3108.407
580.14, 2988.806
580.33, 3722.388
580.53, 3339.008
580.72, 3025.259
580.92, 3253.403
581.12, 3305.422
581.31, 3370.957
581.51, 3231.695
581.70, 3087.927
581.90, 3890.321
582.09, 3168.617
582.29, 2907.706
582.48, 3035.909
582.68, 3420.517
582.88, 3593.776
583.07, 2981.023
583.27, 2936.378
583.46, 3394.303
583.66, 3654.395
583.85, 3195.650
584.05, 3191.554
584.24, 3751.060
584.44, 3548.720
584.63, 2984.710
584.83, 3000.684
585.03, 3477.861
585.22, 3244.802
585.42, 2883.540
585.61, 3076.049
585.81, 3348.839
586.00, 3275.521
586.20, 3008.056
586.39, 3009.285
586.59, 3252.584
586.78, 3195.241
586.98, 3169.027
587.17, 3152.234
587.37, 3454.104
587.56, 3632.687
587.76, 3091.614
587.95, 3079.326
588.15, 3233.333
588.34, 3510.628
588.54, 3023.621
588.74, 3122.333
588.93, 3082.603
589.13, 3405.772
589.32, 3053.931
589.52, 2864.289
589.71, 3569.610
589.91, 3403.724
590.10, 2902.791
590.30, 3024.440
590.49, 3270.196
590.69, 3474.174
590.88, 2962.592
591.08, 2941.293
591.27, 3366.451
591.47, 3088.746
591.66, 2993.311
591.85, 2953.581
592.05, 3461.067
592.24, 3568.381
592.44, 2951.942
592.63, 2860.193
592.83, 3408.639
593.02, 3309.108
593.22, 2890.913
593.41, 2833.570
593.61, 3200.975
593.80, 3928.823
594.00, 2869.204
594.19, 2940.883
594.39, 3310.337
594.58, 3163.702
594.78, 2947.437
594.97, 3088.337
595.17, 3325.492
595.36, 3397.580
595.56, 2943.341
595.75, 2990.034
595.94, 3371.366
596.14, 3496.292
596.33, 2958.086
596.53, 2838.485
596.72, 3273.473
596.92, 3268.968
597.11, 2910.573
597.31, 3120.285
597.50, 3368.909
597.69, 3576.573
597.89, 3004.780
598.08, 2785.237
598.28, 3430.348
598.47, 3294.363
598.67, 2939.245
598.86, 2974.470
599.06, 3430.348
599.25, 3209.167
599.44, 2981.023
599.64, 2983.071
599.83, 3261.595
600.03, 3198.518
600.22, 2809.813
600.42, 3003.551
600.61, 3162.473
600.80, 3073.591
601.00, 3023.211
601.19, 2912.621
601.39, 3384.064
601.58, 3159.197
601.78, 2935.558
601.97, 2864.699
602.16, 3190.326
602.36, 3085.060
602.55, 2939.245
602.75, 2800.392
602.94, 3386.521
603.13, 3378.739
603.33, 2779.913
603.52, 2866.747
603.72, 3376.691
603.91, 3059.665
604.10, 2922.451
604.30, 2871.252
604.49, 3155.920
604.69, 3218.178
604.88, 2734.857
605.07, 2927.367
605.27, 3143.222
605.46, 3012.562
605.66, 2932.282
605.85, 2884.359
606.04, 3275.112
606.24, 3363.174
606.43, 2638.193
606.62, 2825.787
606.82, 3151.824
607.01, 3271.016
607.21, 2823.330
607.40, 3007.647
607.59, 3190.326
607.79, 3040.005
607.98, 2973.651
608.17, 2732.400
608.37, 3275.521
608.56, 3638.012
608.76, 2639.832
608.95, 2759.024
609.14, 3463.934
609.34, 3183.772
609.53, 2857.326
609.72, 2720.112
609.92, 3065.400
610.11, 3153.872
610.30, 2773.359
610.50, 2827.426
610.69, 2872.481
610.88, 3267.329
611.08, 2797.525
611.27, 2712.739
611.46, 3285.761
611.66, 3034.270
611.85, 2673.828
612.04, 2856.916
612.24, 3228.828
612.43, 3120.695
612.62, 2712.330
612.82, 2811.452
613.01, 3043.691
613.20, 3205.890
613.40, 2828.654
613.59, 2700.042
613.78, 3205.071
613.98, 2836.846
614.17, 2800.392
614.36, 2783.190
614.56, 3956.676
614.75, 3058.027
614.94, 2797.116
615.14, 2762.300
615.33, 3422.565
615.52, 3389.798
615.72, 2750.422
615.91, 2924.090
616.10, 3174.352
616.30, 3221.045
616.49, 2932.691
616.68, 2803.260
616.88, 3531.108
617.07, 3486.462
617.26, 2729.123
617.45, 2912.212
617.65, 3563.056
617.84, 2885.998
618.03, 2722.979
618.23, 2851.182
618.42, 3234.562
618.61, 3054.341
618.80, 2798.754
619.00, 2763.119
619.19, 3379.148
619.38, 3155.510
619.58, 2786.466
619.77, 2839.713
619.96, 3383.654
620.15, 3058.027
620.35, 2954.809
620.54, 2835.618
620.73, 3050.245
620.93, 3237.839
621.12, 2745.507
621.31, 2854.868
621.50, 3004.780
621.70, 3625.314
621.89, 2669.732
622.08, 2599.282
622.27, 3254.222
622.47, 3369.728
622.66, 2742.230
622.85, 2872.891
623.04, 3178.038
623.24, 3132.573
623.43, 2853.640
623.62, 2865.108
623.81, 3200.156
624.01, 3353.754
624.20, 2743.049
624.39, 2988.396
624.58, 3068.676
624.78, 3234.562
624.97, 2773.769
625.16, 2783.599
625.35, 3200.566
625.55, 3274.292
625.74, 2880.263
625.93, 2890.094
626.12, 3069.086
626.32, 3023.211
626.51, 2779.913
626.70, 2764.758
626.89, 3115.370
627.09, 3129.706
627.28, 2728.304
627.47, 2864.699
627.66, 3358.259
627.85, 3236.610
628.05, 2696.765
628.24, 2737.315
628.43, 3288.219
628.62, 3337.370
628.82, 2717.655
629.01, 2959.315
629.20, 3252.584
629.39, 3215.721
629.58, 2681.201
629.78, 2769.673
629.97, 3053.112
630.16, 3058.027
630.35, 2791.791
630.54, 2794.658
630.74, 2933.510
630.93, 2982.662
631.12, 2756.156
631.31, 2638.603
631.50, 3251.765
631.70, 3380.377
631.89, 2620.581
632.08, 2851.592
632.27, 2847.496
632.46, 3275.521
632.65, 2866.747
632.85, 2707.415
633.04, 3071.134
633.23, 3288.628
633.42, 2718.474
633.61, 2718.064
633.81, 3192.783
634.00, 3062.942
634.19, 2776.226
634.38, 2778.274
634.57, 3047.378
634.76, 2908.935
634.96, 2668.503
635.15, 2716.426
635.34, 3256.680
635.53, 3368.089
635.72, 2799.573
635.91, 2567.743
636.11, 3180.086
636.30, 3164.521
636.49, 2769.263
636.68, 2652.529
636.87, 2882.721
637.06, 3530.698
637.26, 2695.946
637.45, 2684.887
637.64, 3006.828
637.83, 3061.713
638.02, 2632.459
638.21, 2787.695
638.40, 3383.244
638.60, 3402.086
638.79, 2793.429
638.98, 2560.371
639.17, 3167.798
639.36, 2839.304
639.55, 2757.385
639.74, 2691.031
639.93, 2967.916
640.13, 3084.651
640.32, 2608.293
640.51, 2634.097
640.70, 3201.385
640.89, 3021.573
641.08, 2733.629
641.27, 2629.592
641.46, 3090.794
641.66, 3226.780
641.85, 2652.529
642.04, 2625.496
642.23, 3221.045
642.42, 2988.396
642.61, 2699.223
642.80, 2594.776
642.99, 2970.783
643.18, 3286.990
643.38, 2713.968
643.57, 2683.658
643.76, 2854.459
643.95, 3268.149
644.14, 2726.666
644.33, 2790.972
644.52, 3313.204
644.71, 2980.204
644.90, 2652.939
645.09, 2599.282
645.29, 3077.278
645.48, 3055.979
645.67, 2823.739
645.86, 2819.643
646.05, 3147.318
646.24, 3302.964
646.43, 2602.149
646.62, 2703.728
646.81, 2966.278
647.00, 2993.721
647.19, 2623.448
647.38, 2761.071
647.57, 3071.134
647.77, 3172.304
647.96, 2702.090
648.15, 2625.496
648.34, 3213.673
648.53, 3318.938
648.72, 2677.105
648.91, 2925.728
649.10, 3135.440
649.29, 2710.282
649.48, 2605.835
649.67, 2706.186
649.86, 3366.041
650.05, 2741.821
650.24, 2714.378
650.43, 2862.651
650.62, 3053.931
650.81, 3369.318
651.01, 2589.042
651.20, 2679.562
651.39, 3176.809
651.58, 3237.839
651.77, 2580.850
651.96, 2691.441
652.15, 3088.337
652.34, 2940.883
652.53, 2780.322
652.72, 2656.625
652.91, 3155.101
653.10, 3110.865
653.29, 2634.917
653.48, 2584.537
653.67, 3123.152
653.86, 2967.916
654.05, 2586.585
654.24, 2672.599
654.43, 3031.813
654.62, 2921.632
654.81, 2591.909
655.00, 2624.267
655.19, 2983.481
655.38, 3162.064
655.57, 2572.658
655.76, 2727.075
655.95, 3054.341
656.14, 2808.994
656.33, 2692.669
656.52, 2668.094
656.71, 2913.440
656.90, 2959.315
657.09, 2591.500
657.28, 2592.728
657.47, 3079.735
657.66, 3040.414
657.85, 2596.415
658.04, 2677.514
658.23, 2823.330
658.42, 3116.599
658.61, 2618.533
658.80, 2549.312
658.99, 3018.296
659.18, 3464.344
659.37, 2521.459
659.56, 2680.791
659.75, 3032.632
659.94, 2902.791
660.13, 2483.777
660.32, 2736.905
660.51, 3022.392
660.70, 2920.403
660.89, 2751.651
661.08, 2539.481
661.27, 3130.115
661.46, 2938.016
661.65, 2626.725
661.84, 2713.968
662.03, 3005.599
662.22, 3124.791
662.41, 2523.917
662.60, 2539.072
662.78, 2933.101
662.97, 3139.946
663.16, 2568.562
663.35, 2608.293
663.54, 2993.311
663.73, 3186.639
663.92, 2627.954
664.11, 2623.038
664.30, 2905.658
664.49, 3200.156
664.68, 2599.282
664.87, 2633.688
665.06, 2988.806
665.25, 2951.533
665.44, 2605.016
665.63, 2595.186
665.82, 3023.211
666.01, 3380.787
666.19, 2570.610
666.38, 2722.160
666.57, 3290.267
666.76, 2935.968
666.95, 2734.038
667.14, 2553.817
667.33, 2907.296
667.52, 3317.709
667.71, 2673.828
667.90, 2849.544
668.09, 3167.798
668.28, 2895.418
668.46, 2581.669
668.65, 2709.463
668.84, 3318.529
669.03, 2813.090
669.22, 2506.304
669.41, 2682.020
669.60, 3400.038
669.79, 2819.234
669.98, 2757.795
670.17, 2557.913
670.35, 3012.972
670.54, 2957.267
670.73, 2605.016
670.92, 2698.404
671.11, 3054.341
671.30, 2659.492
671.49, 2591.090
671.68, 2566.924
671.87, 3111.684
672.05, 3137.488
672.24, 2555.455
672.43, 2725.027
672.62, 2938.426
672.81, 3155.510
673.00, 2626.315
673.19, 2558.732
673.38, 2919.175
673.57, 2906.477
673.75, 2757.795
673.94, 2664.817
674.13, 2985.938
674.32, 2885.178
674.51, 2630.821
674.70, 2662.359
674.89, 2636.555
675.07, 3007.647
675.26, 2828.654
675.45, 2696.765
675.64, 3124.381
675.83, 3062.532
676.02, 2730.762
676.21, 2896.237
676.39, 3021.163
676.58, 2748.374
676.77, 2413.326
676.96, 2557.503
677.15, 3005.599
677.34, 3234.971
677.52, 2602.559
677.71, 2588.223
677.90, 2935.149
678.09, 3074.820
678.28, 2569.791
678.47, 2747.964
678.65, 2997.817
678.84, 3237.019
679.03, 2541.120
679.22, 2556.684
679.41, 2901.972
679.60, 2815.957
679.78, 2750.012
679.97, 2655.806
680.16, 3190.326
680.35, 3141.174
680.54, 2928.595
680.73, 2518.182
680.91, 2987.167
681.10, 3101.444
681.29, 2637.374
681.48, 2636.145
681.67, 3108.817
681.85, 2906.887
682.04, 2609.522
682.23, 2631.230
682.42, 2864.289
682.61, 2737.725
682.79, 2628.773
682.98, 2683.658
683.17, 2939.245
683.36, 2856.507
683.55, 2693.079
683.73, 2733.629
683.92, 2874.939
684.11, 3045.330
684.30, 2743.459
684.49, 2738.953
684.67, 2889.274
684.86, 2840.123
685.05, 2580.850
685.24, 2716.016
685.42, 3241.115
685.61, 2915.488
685.80, 2657.035
685.99, 2755.337
686.18, 3003.141
686.36, 2897.057
686.55, 2824.968
686.74, 2717.655
686.93, 3033.861
687.11, 3084.241
687.30, 2472.717
687.49, 2510.400
687.68, 3024.850
687.86, 2979.385
688.05, 2619.352
688.24, 2594.367
688.43, 3283.304
688.61, 3006.828
688.80, 2608.293
688.99, 2590.680
689.18, 3254.222
689.36, 3094.481
689.55, 2577.164
689.74, 2440.360
689.93, 2963.001
690.11, 2896.647
690.30, 2591.090
690.49, 2572.249
690.68, 3283.304
690.86, 2802.031
691.05, 2503.027
691.24, 2589.861
691.43, 2933.510
691.61, 3133.802
691.80, 2590.271
691.99, 2507.533
692.17, 3053.521
692.36, 2936.787
692.55, 2673.828
692.74, 2484.186
692.92, 2828.245
693.11, 2863.060
693.30, 2736.496
693.49, 2536.205
693.67, 2846.677
693.86, 2929.824
694.05, 2645.976
694.23, 2654.577
694.42, 3225.141
694.61, 2784.009
694.79, 2561.599
694.98, 2572.249
695.17, 3142.403
695.36, 2605.835
695.54, 2686.935
695.73, 2481.319
695.92, 3037.138
696.10, 3155.101
696.29, 2444.865
696.48, 2741.821
696.66, 3396.351
696.85, 2675.466
697.04, 2472.308
697.22, 2548.083
697.41, 3145.270
697.60, 2726.666
697.79, 2508.352
697.97, 2515.725
698.16, 3115.780
698.35, 2865.518
698.53, 2535.795
698.72, 2511.219
698.91, 3291.495
699.09, 2889.684
699.28, 2613.618
699.47, 2702.090
699.65, 2748.784
699.84, 3126.429
700.03, 2657.444
700.21, 2590.271
700.40, 2721.341
700.59, 2898.695
700.77, 2677.514
700.96, 2595.186
701.15, 3108.407
701.33, 3156.739
701.52, 2417.013
701.70, 2598.872
701.89, 3205.481
702.08, 2826.606
702.26, 2462.478
702.45, 2419.470
702.64, 2609.112
702.82, 2875.348
703.01, 2639.422
703.20, 2520.640
703.38, 3252.174
703.57, 2769.673
703.76, 2595.186
703.94, 2540.300
704.13, 2777.865
704.31, 2622.219
704.50, 2687.345
704.69, 2721.750
704.87, 2821.282
705.06, 2862.241
705.25, 2578.802
705.43, 2463.297
705.62, 2930.234
705.80, 2966.688
705.99, 2692.260
706.18, 2538.662
706.36, 2879.034
706.55, 2792.610
706.73, 2489.511
706.92, 2547.673
707.11, 2963.820
707.29, 3093.252
707.48, 2642.289
707.66, 2595.596
707.85, 2756.156
708.04, 2787.285
708.22, 2538.252
708.41, 2577.983
708.59, 3173.532
708.78, 2911.802
708.97, 2312.566
709.15, 2580.850
709.34, 2924.499
709.52, 2834.389
709.71, 2509.581
709.90, 2451.828
710.08, 3092.842
710.27, 2612.799
710.45, 2519.411
710.64, 2478.861
710.82, 3026.079
711.01, 2763.939
711.20, 2611.570
711.38, 2457.562
711.57, 2790.562
711.75, 2606.245
711.94, 2637.784
712.12, 2562.418
712.31, 2840.123
712.50, 3020.344
712.68, 2471.489
712.87, 2674.238
713.05, 2860.193
713.24, 2661.950
713.42, 2494.836
713.61, 2462.068
713.79, 2978.975
713.98, 2726.666
714.17, 2496.064
714.35, 2555.046
714.54, 2813.909
714.72, 2754.518
714.91, 2575.935
715.09, 2638.603
715.28, 2705.776
715.46, 3217.359
715.65, 2467.393
715.83, 2524.326
716.02, 3139.946
716.21, 3021.983
716.39, 2564.057
716.58, 2431.758
716.76, 2812.680
716.95, 3075.639
717.13, 2472.308
717.32, 2469.031
717.50, 3220.636
717.69, 3009.695
717.87, 2498.522
718.06, 2552.588
718.24, 2702.500
718.43, 2956.448
718.61, 2559.551
718.80, 2545.625
718.98, 2890.913
719.17, 2855.688
719.35, 2609.522
719.54, 2557.503
719.72, 2752.060
719.91, 2947.846
720.09, 2427.253
720.28, 2563.238
720.46, 2824.968
720.65, 3232.104
720.83, 2474.356
721.02, 2616.075
721.20, 3064.990
721.39, 2832.750
721.57, 2473.537
721.76, 2646.795
721.94, 2906.068
722.13, 2799.983
722.31, 2582.489
722.50, 2597.644
722.68, 2774.178
722.87, 3123.152
723.05, 2461.658
723.24, 3074.411
723.42, 2686.525
723.61, 3165.750
723.79, 2413.326
723.98, 2432.987
724.16, 3079.326
724.34, 2652.120
724.53, 2586.994
724.71, 2670.961
724.90, 2799.573
725.08, 2949.894
725.27, 2466.574
725.45, 2369.500
725.64, 2639.832
725.82, 3170.665
726.01, 2326.902
726.19, 2450.190
726.38, 2729.123
726.56, 2657.854
726.74, 2596.824
726.93, 2475.175
727.11, 3423.794
727.30, 2830.702
727.48, 2491.968
727.67, 2546.854
727.85, 2941.702
728.04, 3139.946
728.22, 2533.337
728.40, 2573.478
728.59, 2908.935
728.77, 2895.418
728.96, 2414.555
729.14, 2511.629
729.33, 3396.761
729.51, 2985.529
729.69, 2642.289
729.88, 2478.861
730.06, 2950.304
730.25, 2927.776
730.43, 2528.422
730.61, 2609.112
730.80, 2874.119
730.98, 3086.698
731.17, 2632.869
731.35, 2482.138
731.54, 2840.533
731.72, 3058.027
731.90, 2478.452
732.09, 2542.348
732.27, 3066.219
732.46, 3170.665
732.64, 2487.463
732.82, 2492.378
733.01, 2911.392
733.19, 3016.248
733.38, 2354.754
733.56, 2632.049
733.74, 2994.540
733.93, 3026.079
734.11, 2537.843
734.29, 2435.854
734.48, 2922.042
734.66, 2887.636
734.85, 2421.518
735.03, 2469.850
735.21, 2915.898
735.40, 3295.591
735.58, 2573.478
735.77, 2507.533
735.95, 3063.352
736.13, 2775.407
736.32, 2426.843
736.50, 2557.094
736.68, 2749.193
736.87, 3063.352
737.05, 2556.275
737.23, 2600.511
737.42, 2993.721
737.60, 2809.813
737.79, 2524.326
737.97, 2438.312
738.15, 3048.197
738.34, 2846.267
738.52, 2568.153
738.70, 2630.411
738.89, 3026.488
739.07, 2833.160
739.25, 2649.252
739.44, 2556.275
739.62, 3138.717
739.80, 2680.791
739.99, 2417.832
740.17, 2573.887
740.35, 3221.864
740.54, 3089.566
740.72, 2446.913
740.90, 2434.625
741.09, 2648.843
741.27, 2836.437
741.45, 2624.267
741.64, 2419.061
741.82, 2973.651
742.00, 2832.341
742.19, 2582.489
742.37, 2508.762
742.55, 2771.721
742.74, 2846.267
742.92, 2452.647
743.10, 2695.536
743.29, 3076.868
743.47, 3081.783
743.65, 2461.249
743.83, 2602.559
744.02, 2860.603
744.20, 2768.444
744.38, 2394.075
744.57, 2455.515
744.75, 2643.518
744.93, 2787.695
745.12, 2523.098
745.30, 2503.027
745.48, 3335.322
745.66, 2662.359
745.85, 2364.994
746.03, 2451.828
746.21, 3031.403
746.40, 2851.182
746.58, 2496.884
746.76, 2413.736
746.94, 3041.643
747.13, 2930.234
747.31, 2426.433
747.49, 2561.599
747.68, 2874.939
747.86, 3005.599
748.04, 2439.540
748.22, 2397.762
748.41, 3054.341
748.59, 3044.101
748.77, 2393.256
748.95, 2524.326
749.14, 2741.411
749.32, 2872.481
749.50, 2471.898
749.68, 2335.913
749.87, 2736.496
750.05, 2833.979
750.23, 2464.116
750.42, 2493.197
750.60, 2789.743
750.78, 2796.297
750.96, 2557.094
751.15, 2634.507
751.33, 2572.249
751.51, 2994.540
751.69, 2523.507
751.87, 2485.005
752.06, 2633.688
752.24, 2843.400
752.42, 2436.264
752.60, 2384.655
752.79, 3147.728
752.97, 2904.839
753.15, 2400.629
753.33, 2522.688
753.52, 2812.680
753.70, 2808.175
753.88, 2409.230
754.06, 2526.784
754.24, 2768.854
754.43, 3085.879
754.61, 2422.337
754.79, 2421.109
754.97, 2703.728
755.16, 3040.005
755.34, 2562.009
755.52, 2586.994
755.70, 2876.577
755.88, 2634.097
756.07, 2473.537
756.25, 2444.046
756.43, 2919.994
756.61, 2652.120
756.79, 2579.212
756.98, 2456.334
757.16, 2926.547
757.34, 2641.470
757.52, 2464.116
757.70, 2517.363
757.89, 3040.824
758.07, 3393.484
758.25, 2516.954
758.43, 2364.994
758.61, 2925.319
758.80, 2979.385
758.98, 2602.968
759.16, 2508.762
759.34, 3062.942
759.52, 2813.499
759.70, 2508.352
759.89, 2541.120
760.07, 2772.130
760.25, 2823.739
760.43, 2357.212
760.61, 2545.216
760.79, 2718.883
760.98, 2867.975
761.16, 2525.145
761.34, 2568.562
761.52, 2542.758
761.70, 2903.200
761.88, 2535.795
762.07, 2539.072
762.25, 3226.370
762.43, 2914.260
762.61, 2552.588
762.79, 2490.330
762.97, 2941.702
763.15, 2816.367
763.34, 2480.909
763.52, 2500.979
763.70, 3178.038
763.88, 3078.097
764.06, 2691.850
764.24, 2498.112
764.42, 3039.186
764.61, 2861.832
764.79, 2495.245
764.97, 2588.632
765.15, 2738.953
765.33, 3127.248
765.51, 2598.463
765.69, 2821.691
765.87, 3088.746
766.06, 3083.012
766.24, 2521.050
766.42, 2465.345
766.60, 2981.023
766.78, 3183.772
766.96, 2658.263
767.14, 2586.994
767.32, 3074.411
767.50, 2705.776
767.69, 2556.684
767.87, 2598.053
768.05, 3096.119
768.23, 2795.068
768.41, 2667.684
768.59, 2435.444
768.77, 2874.529
768.95, 2905.248
769.13, 2436.673
769.32, 2434.625
769.50, 2948.665
769.68, 2908.116
769.86, 2552.998
770.04, 2445.275
770.22, 2572.249
770.40, 2856.507
770.58, 2388.341
770.76, 2394.895
770.94, 3087.108
771.12, 2604.197
771.30, 2435.854
771.49, 2614.437
771.67, 2922.042
771.85, 2822.101
772.03, 2476.813
772.21, 2539.481
772.39, 2785.238
772.57, 2983.890
772.75, 2392.028
772.93, 2524.736
773.11, 2996.997
773.29, 2870.023
773.47, 2488.282
773.65, 2600.511
773.83, 3044.101
774.01, 2717.245
774.19, 2507.943
774.38, 2628.363
774.56, 3058.846
774.74, 2963.411
774.92, 2477.223
775.10, 2450.599
775.28, 2643.928
775.46, 3089.156
775.64, 2367.452
775.82, 2436.264
776.00, 2467.393
776.18, 2648.843
776.36, 2399.810
776.54, 2641.470
776.72, 2776.636
776.90, 2802.031
777.08, 2417.422
777.26, 2487.053
777.44, 2729.123
777.62, 2923.271
777.80, 2426.843
777.98, 2495.245
778.16, 2685.297
778.34, 2908.935
778.52, 2620.171
778.70, 2463.706
778.88, 2770.083
779.06, 2591.909
779.24, 2413.326
779.42, 2524.326
779.60, 3049.016
779.78, 2829.883
779.96, 2380.149
780.14, 2410.459
780.32, 2840.533
780.50, 2982.252
780.68, 2416.603
780.86, 2402.267
781.04, 2836.846
781.22, 2633.278
781.40, 2543.168
781.58, 2402.677
781.76, 2753.289
781.94, 2874.529
782.12, 2481.729
782.30, 2586.994
782.48, 2896.237
782.66, 2875.758
782.84, 2487.053
783.02, 2538.662
783.20, 2901.972
783.38, 2958.086
783.56, 2356.802
783.74, 2394.895
783.92, 2700.042
784.10, 2886.817
784.28, 2471.489
784.46, 2457.153
784.64, 2834.798
784.82, 2781.551
785.00, 2350.249
785.18, 2316.662
785.36, 2975.289
785.54, 2503.847
785.72, 2468.622
785.90, 2399.400
786.08, 2557.503
786.26, 2752.060
786.43, 2479.271
786.61, 2465.754
786.79, 3153.872
786.97, 3080.964
787.15, 2494.836
787.33, 2435.854
787.51, 2655.806
787.69, 3010.924
787.87, 2413.736
788.05, 2414.146
788.23, 3398.399
788.41, 2732.400
788.59, 2540.710
788.77, 2477.633
788.95, 2858.145
789.13, 2795.068
789.30, 2536.614
789.48, 2389.980
789.66, 2897.057
789.84, 2871.252
790.02, 2457.153
790.20, 2221.227
790.38, 2913.850
790.56, 2733.629
790.74, 2429.710
790.92, 2492.378
791.10, 2959.315
791.28, 3021.983
791.45, 2661.950
791.63, 2318.301
791.81, 3218.178
791.99, 2900.333
792.17, 2421.928
792.35, 2453.467
792.53, 2415.784
792.71, 2938.426
792.89, 2368.681
793.07, 2572.658
793.24, 2783.190
793.42, 3071.544
793.60, 2362.946
793.78, 2469.441
793.96, 2729.533
794.14, 2785.238
794.32, 2424.385
794.50, 2458.791
794.67, 2819.234
794.85, 2706.186
795.03, 2549.721
795.21, 2464.116
795.39, 2772.130
795.57, 2809.404
795.75, 2463.297
795.93, 2469.850
796.10, 3118.647
796.28, 2691.850
796.46, 2359.670
796.64, 2456.334
796.82, 2973.241
797.00, 2972.422
797.18, 2416.194
797.35, 2384.655
797.53, 2768.035
797.71, 2871.662
797.89, 2625.496
798.07, 2475.585
798.25, 2856.507
798.43, 3049.425
798.60, 2473.127
798.78, 2453.467
798.96, 3135.440
799.14, 2541.529
799.32, 2281.847
799.50, 2475.585
799.67, 2705.367
799.85, 2792.610
800.03, 2486.644
800.21, 2480.090
800.39, 2843.400
800.57, 2882.311
800.74, 2464.116
800.92, 2491.968
801.10, 2728.304
801.28, 2550.540
801.46, 2336.732
801.64, 2400.629
801.81, 3063.352
801.99, 2700.861
802.17, 2514.086
802.35, 2490.740
802.53, 2746.326
802.70, 2231.467
802.88, 2368.681
803.06, 2312.157
803.24, 2774.998
803.42, 2825.787
803.59, 2391.618
803.77, 2228.600
803.95, 3176.809
804.13, 2969.145
804.31, 2435.035
804.48, 2431.348
804.66, 2892.551
804.84, 2604.197
805.02, 2459.201
805.20, 2480.909
805.37, 2701.680
805.55, 2809.813
805.73, 2472.717
805.91, 2523.507
806.08, 2892.961
806.26, 2716.016
806.44, 2353.935
806.62, 2308.061
806.80, 2774.178
806.97, 2728.304
807.15, 2440.769
807.33, 2578.802
807.51, 2906.477
807.68, 2360.079
807.86, 2439.950
808.04, 2380.559
808.22, 2729.533
808.39, 4229.875
808.57, 2417.013
808.75, 2472.717
808.93, 2779.913
809.10, 2572.249
809.28, 2403.087
809.46, 2359.260
809.64, 2989.625
809.81, 2541.939
809.99, 2454.286
810.17, 2278.980
810.35, 3291.086
810.52, 2791.381
810.70, 2443.227
810.88, 2446.094
811.06, 2754.928
811.23, 3018.296
811.41, 2348.611
811.59, 2203.205
811.77, 2965.049
811.94, 2606.245
812.12, 2533.747
812.30, 2410.459
812.47, 2837.666
812.65, 2962.182
812.83, 2439.540
813.01, 2429.301
813.18, 2654.168
813.36, 2868.795
813.54, 2360.079
813.71, 2403.496
813.89, 3291.905
814.07, 2813.499
814.25, 2554.636
814.42, 2470.260
814.60, 3145.270
814.78, 2898.285
814.95, 2279.799
815.13, 2520.640
815.31, 2734.448
815.49, 2950.304
815.66, 2417.422
815.84, 2439.131
816.02, 2966.278
816.19, 2775.407
816.37, 2523.507
816.55, 2539.481
816.72, 3069.905
816.90, 2711.511
817.08, 2338.371
817.25, 2419.061
817.43, 3000.684
817.61, 2735.267
817.78, 2542.758
817.96, 2573.887
818.14, 2649.252
818.31, 2946.208
818.49, 2448.142
818.67, 2401.858
818.84, 2676.286
819.02, 2586.585
819.20, 2392.437
819.37, 2544.396
819.55, 2831.931
819.73, 2986.348
819.90, 2513.267
820.08, 2828.245
820.26, 3026.898
820.43, 3139.946
820.61, 2684.477
820.79, 2629.182
820.96, 3076.868
821.14, 2916.717
821.32, 2718.064
821.49, 2665.636
821.67, 3006.828
821.85, 3037.547
822.02, 2754.108
822.20, 2752.060
822.37, 3404.134
822.55, 2865.518
822.73, 2960.953
822.90, 2893.370
823.08, 3509.809
823.26, 3042.053
823.43, 2942.931
823.61, 2894.189
823.78, 3294.772
823.96, 2993.721
824.14, 2955.219
824.31, 2786.876
824.49, 3454.104
824.67, 3426.252
824.84, 2813.909
825.02, 2821.691
825.19, 3216.130
825.37, 3566.742
825.55, 2816.776
825.72, 2673.009
825.90, 2934.739
826.07, 3002.322
826.25, 2866.337
826.43, 2645.976
826.60, 2716.016
826.78, 3087.518
826.95, 2655.396
827.13, 2642.699
827.31, 3329.178
827.48, 3125.200
827.66, 2635.736
827.83, 2888.455
828.01, 2963.820
828.19, 2973.241
828.36, 2637.374
828.54, 2803.260
828.71, 2843.400
828.89, 2920.813
829.06, 2557.503
829.24, 2861.422
829.42, 2867.566
829.59, 3171.484
829.77, 2625.496
829.94, 2542.348
830.12, 2910.983
830.29, 2740.182
830.47, 2532.109
830.65, 2400.629
830.82, 3200.156
831.00, 2857.326
831.17, 2462.068
831.35, 2549.721
831.52, 2886.407
831.70, 2899.924
831.87, 2329.769
832.05, 2374.825
832.23, 2832.341
832.40, 2840.123
832.58, 2640.241
832.75, 2481.319
832.93, 2779.094
833.10, 2816.367
833.28, 2656.215
833.45, 2545.216
833.63, 2998.636
833.80, 2611.570
833.98, 2537.024
834.15, 2622.219
834.33, 2945.798
834.51, 2910.164
834.68, 2464.935
834.86, 2386.293
835.03, 2838.894
835.21, 2867.566
835.38, 2550.540
835.56, 2516.134
835.73, 2937.606
835.91, 3081.374
836.08, 2428.072
836.26, 2564.466
836.43, 2899.924
836.61, 2915.898
836.78, 2457.972
836.96, 2379.330
837.13, 3200.975
837.31, 2940.883
837.48, 2588.223
837.66, 2365.404
837.83, 2862.651
838.01, 2924.090
838.18, 2194.603
838.36, 2229.009
838.53, 2734.038
838.71, 3121.514
838.88, 2261.777
839.06, 2360.898
839.23, 2865.518
839.41, 2831.112
839.58, 2332.636
839.76, 2170.847
839.93, 2973.651
840.11, 2948.256
840.28, 2285.943
840.46, 2362.946
840.63, 2574.297
840.81, 2757.795
840.98, 2226.961
841.15, 2247.850
841.33, 2889.684
841.50, 2645.976
841.68, 2356.802
841.85, 2358.441
842.03, 3113.732
842.20, 2980.204
842.38, 2181.496
842.55, 2240.887
842.73, 2818.415
842.90, 2641.470
843.08, 2310.518
843.25, 2429.301
843.42, 2746.326
843.60, 2977.747
843.77, 2199.109
843.95, 2253.585
844.12, 2453.876
844.30, 2934.739
844.47, 2174.124
844.64, 2190.917
844.82, 3176.400
844.99, 2738.953
845.17, 2292.087
845.34, 2107.769
845.52, 2706.595
845.69, 2876.167
845.87, 2276.522
846.04, 2179.039
846.21, 2770.492
846.39, 2828.245
846.56, 2298.231
846.74, 2217.950
846.91, 2731.171
847.08, 2677.105
847.26, 2146.681
847.43, 2175.352
847.61, 2690.621
847.78, 3028.946
847.95, 2215.493
848.13, 2175.762
848.30, 2706.596
848.48, 2665.636
848.65, 2289.219
848.83, 2294.135
849.00, 2671.370
849.17, 2766.396
849.35, 2224.094
849.52, 2132.755
849.69, 2889.684
849.87, 2668.913
850.04, 2197.880
850.22, 2103.674
850.39, 2685.706
850.56, 2999.455
850.74, 2130.297
850.91, 2154.463
851.09, 2601.330
851.26, 2773.359
851.43, 2065.991
851.61, 2295.363
851.78, 2554.636
851.95, 2722.570
852.13, 2182.315
852.30, 2116.781
852.48, 3243.163
852.65, 2794.658
852.82, 2152.006
853.00, 2152.006
853.17, 2879.854
853.34, 2389.980
853.52, 2235.972
853.69, 2093.843
853.86, 2901.972
854.04, 2759.843
854.21, 2233.515
854.38, 2120.057
854.56, 2571.020
854.73, 2537.024
854.90, 2256.452
855.08, 2146.681
855.25, 2807.356
855.42, 2377.282
855.60, 2291.677
855.77, 2263.005
855.95, 2783.190
856.12, 2834.389
856.29, 2093.434
856.46, 2274.884
856.64, 2682.020
856.81, 2810.223
856.98, 2264.644
857.16, 2194.603
857.33, 2525.145
857.50, 2857.326
857.68, 2141.766
857.85, 2256.452
858.02, 2572.658
858.20, 2602.149
858.37, 2279.799
858.54, 2088.928
858.72, 3317.300
858.89, 2941.293
859.06, 2137.260
859.24, 2141.356
859.41, 2856.097
859.58, 2825.787
859.75, 2179.858
859.93, 2167.980
860.10, 2787.695
860.27, 2883.130
860.45, 2171.666
860.62, 2237.611
860.79, 2802.031
860.97, 2877.806
861.14, 2226.961
861.31, 2234.744
861.48, 2771.311
861.66, 2467.393
861.83, 2134.803
862.00, 2127.430
862.17, 2506.304
862.35, 2842.581
862.52, 2148.729
862.69, 2281.028
862.87, 2854.459
863.04, 2814.319
863.21, 2110.227
863.38, 2217.131
863.56, 2817.595
863.73, 2666.455
863.90, 2123.334
864.07, 2380.559
864.25, 3084.241
864.42, 2556.275
864.59, 2102.445
864.76, 2149.138
864.94, 2958.086
865.11, 2578.393
865.28, 2095.072
865.45, 2222.046
865.63, 2756.566
865.80, 2552.588
865.97, 2172.895
866.14, 2130.707
866.32, 2853.230
866.49, 2627.134
866.66, 2316.662
866.83, 2188.050
867.01, 2664.817
867.18, 2663.998
867.35, 2048.378
867.52, 2071.725
867.70, 2978.566
867.87, 3093.252
868.04, 2127.020
868.21, 2173.304
868.38, 2820.463
868.56, 3028.127
868.73, 2209.349
868.90, 2133.983
869.07, 2648.433
869.24, 2790.562
869.42, 2189.688
869.59, 2375.644
869.76, 3023.621
869.93, 2601.740
870.11, 2306.832
870.28, 2177.400
870.45, 3033.861
870.62, 2812.680
870.79, 2218.769
870.97, 2330.179
871.14, 2938.016
871.31, 2867.566
871.48, 2238.430
871.65, 2419.880
871.82, 3085.060
872.00, 2832.341
872.17, 2165.932
872.34, 2275.703
872.51, 2629.182
872.68, 2824.149
872.86, 2396.123
873.03, 2189.688
873.20, 2772.950
873.37, 3179.267
873.54, 2145.042
873.71, 2182.316
873.89, 3082.603
874.06, 2876.577
874.23, 2187.231
874.40, 2294.135
874.57, 3082.193
874.74, 2691.441
874.92, 2257.271
875.09, 2101.626
875.26, 3010.104
875.43, 2897.057
875.60, 2194.603
875.77, 2267.511
875.95, 2573.478
876.12, 2800.392
876.29, 2167.161
876.46, 2312.157
876.63, 2705.776
876.80, 2815.957
876.97, 2427.253
877.15, 2165.113
877.32, 2946.208
877.49, 2674.647
877.66, 2516.954
877.83, 2330.179
878.00, 2623.038
878.17, 3250.126
878.34, 2243.755
878.52, 2299.050
878.69, 2781.551
878.86, 2568.972
879.03, 2130.707
879.20, 2178.629
879.37, 2846.267
879.54, 3299.278
879.71, 2177.810
879.89, 2277.341
880.06, 3116.599
880.23, 2783.599
880.40, 2334.684
880.57, 2428.891
880.74, 2759.843
880.91, 3143.222
881.08, 2397.762
881.25, 2482.548
881.42, 3055.569
881.60, 2823.330
881.77, 2386.703
881.94, 2313.386
882.11, 2771.721
882.28, 2941.293
882.45, 2330.998
882.62, 2433.806
882.79, 3200.975
882.96, 2913.031
883.13, 2316.253
883.30, 2572.249
883.48, 3036.728
883.65, 2813.909
883.82, 2281.847
883.99, 2325.264
884.16, 3168.208
884.33, 2785.647
884.50, 2395.714
884.67, 2479.271
884.84, 2899.514
885.01, 2813.499
885.18, 2410.869
885.35, 2342.467
885.52, 2553.407
885.69, 2835.618
885.87, 2245.393
886.04, 2290.039
886.21, 2949.075
886.38, 3011.333
886.55, 2260.957
886.72, 2281.028
886.89, 2956.038
887.06, 2783.599
887.23, 2307.651
887.40, 2393.256
887.57, 2837.666
887.74, 2898.285
887.91, 2086.880
888.08, 2190.098
888.25, 2888.865
888.42, 3210.396
888.59, 2294.954
888.76, 2263.415
888.93, 2782.780
889.10, 2588.632
889.27, 2301.098
889.44, 2301.098
889.61, 2704.138
889.78, 2714.378
889.95, 2390.799
890.12, 2401.448
890.29, 2900.743
890.46, 2709.872
890.63, 2161.836
890.80, 2211.397
890.97, 2668.913
891.15, 2847.905
891.32, 2197.061
891.49, 2321.577
891.66, 3126.839
891.83, 2784.418
892.00, 2296.592
892.17, 2352.706
892.34, 2852.001
892.51, 2897.057
892.68, 2264.644
892.84, 2204.434
893.01, 2568.153
893.18, 2809.404
893.35, 2238.020
893.52, 2171.666
893.69, 2886.407
##END=
##TITLE= SPECTRASUITE EXPORTED SPECTRA: DARK SPECTRUM
##JCAMP-DX= 5 $$EXPORTED SPECTRASUITE FILE
##DATA TYPE= UV/VIS SPECTRUM
##SAMPLE DESCRIPTION= DARK SPECTRUM
##BLOCK_ID=2
##ORIGIN= OCEANOPTICS EXPORT
##OWNER= hugo
##SPECTROMETER/DATA SYSTEM= OCEANOPTICS EXPORT
##DATA PROCESSING= DARK:Yes REFERENCE:Yes
##DATA PROCESSING= BOXCAR:0 ELECTRICAL DARK: false
##.ACQUISITION TIME= 400
##.AVERAGES= 5
##XUNITS= NANOMETERS
##YUNITS= Transmission (%)
##XFACTOR= 1.0
##YFACTOR= 1.0
##FIRSTX= 176.36
##LASTX= 893.69
##FIRSTY= 32822.795
##MINY= 1611.751
##MAXY= 32822.795
##NPOINTS= 3648
##XYPOINTS= (XY..XY)
176.36, 32822.795
176.58, 32822.795
176.80, 32822.795
177.02, 1611.751
177.24, 1646.976
177.47, 2505.485
177.69, 2509.171
177.91, 2952.761
178.13, 2649.252
178.35, 2355.983
178.57, 2341.647
178.79, 2631.230
179.01, 2755.337
179.23, 2236.791
179.46, 2403.496
179.68, 2630.001
179.90, 2546.854
180.12, 2239.249
180.34, 2337.552
180.56, 2534.566
180.78, 2873.300
181.00, 2234.743
181.22, 2389.570
181.44, 2591.500
181.66, 2707.415
181.89, 2374.415
182.11, 2245.803
182.33, 2639.832
182.55, 3093.662
182.77, 2395.714
182.99, 2514.086
183.21, 2348.611
183.43, 2632.459
183.65, 2274.064
183.87, 2158.969
184.09, 2867.975
184.31, 2788.514
184.53, 2231.057
184.76, 2279.389
184.98, 2603.378
185.20, 2890.503
185.42, 2438.312
185.64, 2294.544
185.86, 2947.846
186.08, 3271.425
186.30, 2248.260
186.52, 2210.577
186.74, 2787.695
186.96, 2738.953
187.18, 2279.389
187.40, 2235.972
187.62, 2940.474
187.84, 2941.702
188.06, 2364.175
188.28, 2321.987
188.51, 2868.385
188.73, 2950.713
188.95, 2310.928
189.17, 2403.087
189.39, 2802.031
189.61, 2781.142
189.83, 2405.134
190.05, 2380.968
190.27, 3010.514
190.49, 2774.998
190.71, 2229.828
190.93, 2249.079
191.15, 2469.441
191.37, 2768.854
191.59, 2363.356
191.81, 2465.345
192.03, 2744.278
192.25, 2785.238
192.47, 2267.101
192.69, 2336.732
192.91, 2738.134
193.13, 2735.267
193.35, 2190.917
193.57, 2461.249
193.79, 2544.806
194.01, 2947.846
194.23, 2298.231
194.45, 2258.500
194.67, 2913.850
194.89, 2459.201
195.11, 2220.817
195.33, 2135.622
195.55, 2630.821
195.77, 2784.418
195.99, 2355.164
196.21, 2270.788
196.43, 2863.880
196.65, 2575.935
196.87, 2444.046
197.09, 2270.378
197.31, 2918.765
197.53, 2954.809
197.75, 2386.293
197.97, 2390.799
198.19, 2915.488
198.41, 3090.794
198.63, 2280.208
198.85, 2364.175
199.07, 2905.658
199.29, 2561.599
199.51, 2305.603
199.73, 2427.253
199.95, 2557.913
200.17, 2772.130
200.39, 2348.611
200.61, 2396.943
200.83, 2564.466
201.05, 2818.005
201.27, 2245.393
201.49, 2350.249
201.71, 2994.130
201.93, 2923.271
202.15, 2286.352
202.37, 2278.570
202.59, 2845.857
202.81, 2662.359
203.03, 2372.367
203.25, 2398.171
203.47, 2668.503
203.69, 2709.463
203.91, 2344.924
204.13, 2195.422
204.35, 2547.673
204.57, 2981.433
204.79, 2263.825
205.01, 2216.312
205.23, 2878.625
205.45, 2694.308
205.67, 2111.456
205.89, 2308.880
206.10, 2937.197
206.32, 2449.371
206.54, 2224.913
206.76, 2293.725
206.98, 2750.422
207.20, 2615.666
207.42, 2330.179
207.64, 2202.795
207.86, 2530.880
208.08, 3192.783
208.30, 2264.234
208.52, 2225.732
208.74, 2896.237
208.96, 2924.090
209.18, 2154.463
209.40, 2481.319
209.62, 2607.064
209.83, 2703.319
210.05, 2236.791
210.27, 2244.164
210.49, 2709.872
210.71, 2557.503
210.93, 2323.216
211.15, 2361.718
211.37, 2477.223
211.59, 2570.201
211.81, 2180.268
212.03, 2205.662
212.25, 2780.322
212.47, 2634.917
212.68, 2248.670
212.90, 2327.312
213.12, 2722.570
213.34, 2915.488
213.56, 2161.426
213.78, 2259.729
214.00, 2981.023
214.22, 2433.806
214.44, 2340.828
214.66, 2309.290
214.88, 2636.555
215.09, 2696.765
215.31, 2111.456
215.53, 2292.906
215.75, 2832.750
215.97, 2512.038
216.19, 2346.153
216.41, 2401.858
216.63, 2642.289
216.85, 2983.890
217.06, 2401.858
217.28, 2255.633
217.50, 2540.300
217.72, 2866.747
217.94, 2346.563
218.16, 2227.780
218.38, 2500.570
218.60, 2566.924
218.82, 2324.445
219.03, 2349.430
219.25, 2729.942
219.47, 2755.337
219.69, 2267.101
219.91, 2356.393
220.13, 3059.256
220.35, 2701.271
220.57, 2296.183
220.78, 2487.872
221.00, 2821.282
221.22, 2911.392
221.44, 2332.227
221.66, 2178.629
221.88, 2987.577
222.10, 2426.433
222.31, 2151.186
222.53, 2182.316
222.75, 2521.050
222.97, 2543.987
223.19, 2299.459
223.41, 2355.164
223.63, 2579.212
223.84, 3005.189
224.06, 2267.511
224.28, 2344.105
224.50, 2830.293
224.72, 2645.156
224.94, 2236.382
225.16, 2367.452
225.37, 3089.975
225.59, 2716.426
225.81, 2278.980
226.03, 2360.079
226.25, 2920.813
226.47, 2576.754
226.68, 2271.607
226.90, 2297.002
227.12, 2580.441
227.34, 2887.636
227.56, 2225.323
227.78, 2241.707
227.99, 2702.090
228.21, 2680.382
228.43, 2423.566
228.65, 2325.673
228.87, 2697.994
229.09, 2576.345
229.30, 2364.175
229.52, 2188.869
229.74, 2736.086
229.96, 2938.016
230.18, 2297.411
230.39, 2244.983
230.61, 2716.426
230.83, 2643.928
231.05, 2220.408
231.27, 2379.330
231.49, 2552.588
231.70, 2892.141
231.92, 2296.183
232.14, 2231.467
232.36, 2534.976
232.58, 2885.588
232.79, 2199.928
233.01, 2235.563
233.23, 2687.754
233.45, 2654.987
233.67, 2217.950
233.88, 2293.315
234.10, 3001.503
234.32, 2937.197
234.54, 2310.109
234.75, 2271.607
234.97, 2734.038
235.19, 2966.688
235.41, 2316.253
235.63, 2276.522
235.84, 3022.802
236.06, 2457.562
236.28, 2234.743
236.50, 2212.216
236.72, 2455.105
236.93, 2565.695
237.15, 2287.172
237.37, 2226.552
237.59, 2906.887
237.80, 2563.647
238.02, 2256.452
238.24, 2231.057
238.46, 2869.614
238.67, 2994.949
238.89, 2352.297
239.11, 2326.492
239.33, 2577.164
239.55, 2618.123
239.76, 2377.282
239.98, 2180.677
240.20, 2693.079
240.42, 2625.496
240.63, 2349.020
240.85, 2317.481
241.07, 2789.743
241.29, 2837.666
241.50, 2212.216
241.72, 2344.105
241.94, 2652.120
242.16, 3030.584
242.37, 2291.677
242.59, 2238.020
242.81, 2422.337
243.03, 2887.226
243.24, 2274.884
243.46, 2357.212
243.68, 2881.902
243.90, 2521.869
244.11, 2205.253
244.33, 2228.190
244.55, 2665.636
244.76, 2652.120
244.98, 2378.511
245.20, 2211.806
245.42, 2759.433
245.63, 2575.935
245.85, 2168.799
246.07, 2213.854
246.29, 2808.994
246.50, 2734.448
246.72, 2345.743
246.94, 2382.197
247.15, 2595.186
247.37, 2976.927
247.59, 2217.131
247.81, 2418.651
248.02, 2680.382
248.24, 2801.212
248.46, 2280.618
248.67, 2213.035
248.89, 2806.127
249.11, 2829.064
249.33, 2385.064
249.54, 2243.755
249.76, 2641.880
249.98, 2412.507
250.19, 2278.570
250.41, 2194.194
250.63, 2742.640
250.84, 2541.529
251.06, 2297.411
251.28, 2353.116
251.50, 2409.230
251.71, 2702.500
251.93, 2281.437
252.15, 2269.149
252.36, 2569.791
252.58, 3084.651
252.80, 2290.039
253.01, 2485.824
253.23, 2856.097
253.45, 2592.728
253.66, 2337.142
253.88, 2336.323
254.10, 2572.658
254.31, 2831.522
254.53, 2159.788
254.75, 2352.297
254.97, 3015.020
255.18, 2704.548
255.40, 2303.555
255.62, 2263.005
255.83, 2559.142
256.05, 2795.477
256.27, 2278.980
256.48, 2380.968
256.70, 2752.060
256.92, 2803.260
257.13, 2398.171
257.35, 2178.220
257.57, 2932.282
257.78, 2726.666
258.00, 2450.190
258.21, 2433.806
258.43, 2898.695
258.65, 2729.123
258.86, 2275.703
259.08, 2316.253
259.30, 2841.761
259.51, 2976.108
259.73, 2161.426
259.95, 2380.968
260.16, 2836.437
260.38, 2976.927
260.60, 2142.175
260.81, 2286.352
261.03, 2778.684
261.25, 2477.633
261.46, 2306.013
261.68, 2221.636
261.89, 2617.304
262.11, 2609.522
262.33, 2257.681
262.54, 2063.533
262.76, 2758.614
262.98, 2741.821
263.19, 2248.260
263.41, 2266.282
263.62, 2615.256
263.84, 2718.064
264.06, 2256.452
264.27, 2276.112
264.49, 2693.898
264.71, 2651.300
264.92, 2371.548
265.14, 2373.186
265.35, 2816.367
265.57, 2693.079
265.79, 2312.976
266.00, 2312.157
266.22, 3002.732
266.43, 2476.813
266.65, 2342.876
266.87, 2141.356
267.08, 2353.935
267.30, 2405.544
267.51, 2415.374
267.73, 2269.149
267.95, 3008.876
268.16, 2524.326
268.38, 2275.703
268.59, 2397.352
268.81, 2757.795
269.03, 2861.422
269.24, 2239.659
269.46, 2321.987
269.67, 2707.415
269.89, 2603.787
270.11, 2297.821
270.32, 2352.297
270.54, 2624.267
270.75, 3151.824
270.97, 2191.736
271.19, 2260.548
271.40, 2623.038
271.62, 2496.884
271.83, 2183.954
272.05, 2147.090
272.26, 2720.522
272.48, 2770.492
272.70, 2397.762
272.91, 2326.492
273.13, 2793.020
273.34, 2800.802
273.56, 2333.046
273.77, 2353.116
273.99, 3045.739
274.21, 3084.651
274.42, 2528.832
274.64, 2390.389
274.85, 2694.308
275.07, 2587.813
275.28, 2372.777
275.50, 2497.293
275.71, 2522.688
275.93, 2534.157
276.15, 2464.526
276.36, 2378.920
276.58, 2865.518
276.79, 2660.311
277.01, 2439.131
277.22, 2461.249
277.44, 3207.529
277.65, 2852.820
277.87, 2437.083
278.08, 2334.275
278.30, 3174.352
278.52, 2674.647
278.73, 2496.474
278.95, 2323.216
279.16, 2507.943
279.38, 2695.946
279.59, 2512.448
279.81, 2309.699
280.02, 2930.234
280.24, 3031.813
280.45, 2476.404
280.67, 2308.470
280.88, 2741.411
281.10, 2921.632
281.31, 2507.943
281.53, 2441.588
281.74, 2806.946
281.96, 2537.024
282.17, 2370.319
282.39, 2371.548
282.60, 2511.219
282.82, 2660.721
283.04, 2391.618
283.25, 2353.935
283.47, 2730.352
283.68, 2748.784
283.90, 2462.887
284.11, 2377.282
284.33, 2458.791
284.54, 2654.168
284.76, 2343.286
284.97, 2499.341
285.19, 2620.171
285.40, 2837.666
285.62, 2532.109
285.83, 2360.079
286.05, 2764.758
286.26, 2643.928
286.48, 2418.241
286.69, 2475.994
286.91, 2505.895
287.12, 3050.654
287.33, 2306.832
287.55, 2327.721
287.76, 2885.588
287.98, 2812.680
288.19, 2674.647
288.41, 2219.998
288.62, 2626.315
288.84, 2756.976
289.05, 2201.976
289.27, 2281.028
289.48, 2834.798
289.70, 2478.861
289.91, 2466.574
290.13, 2389.980
290.34, 2754.518
290.56, 2716.426
290.77, 2405.544
290.99, 2353.116
291.20, 2534.566
291.41, 2546.035
291.63, 2355.164
291.84, 2534.157
292.06, 2721.750
292.27, 2625.496
292.49, 2329.769
292.70, 2571.430
292.92, 2743.869
293.13, 2811.452
293.35, 2351.478
293.56, 2372.367
293.77, 2487.053
293.99, 2910.573
294.20, 2320.349
294.42, 2400.629
294.63, 2710.691
294.85, 2893.780
295.06, 2311.747
295.28, 2361.718
295.49, 2350.249
295.70, 2944.569
295.92, 2360.079
296.13, 2550.950
296.35, 2879.854
296.56, 2680.382
296.78, 2280.618
296.99, 2354.345
297.20, 2607.474
297.42, 2868.795
297.63, 2407.182
297.85, 2343.286
298.06, 2627.544
298.28, 2691.850
298.49, 2290.039
298.70, 2320.758
298.92, 2911.392
299.13, 2898.695
299.35, 2464.935
299.56, 2359.260
299.77, 2448.142
299.99, 2550.540
300.20, 2443.636
300.42, 2330.588
300.63, 2668.913
300.85, 2919.175
301.06, 2448.961
301.27, 2402.677
301.49, 2652.939
301.70, 2807.356
301.92, 2440.360
302.13, 2399.810
302.34, 2596.824
302.56, 2890.913
302.77, 2375.234
302.99, 2397.762
303.20, 2682.429
303.41, 2756.976
303.63, 2380.149
303.84, 2328.950
304.05, 2473.537
304.27, 2712.330
304.48, 2455.515
304.70, 2272.426
304.91, 2890.094
305.12, 2730.762
305.34, 2259.319
305.55, 2364.994
305.77, 2437.492
305.98, 2807.765
306.19, 2403.087
306.41, 2445.275
306.62, 2543.168
306.83, 2815.957
307.05, 2333.046
307.26, 2331.408
307.47, 2882.311
307.69, 2932.691
307.90, 2340.009
308.12, 2388.751
308.33, 2673.418
308.54, 2940.064
308.76, 2162.245
308.97, 2388.341
309.18, 2783.190
309.40, 2526.374
309.61, 2429.301
309.82, 2329.360
310.04, 2633.688
310.25, 2864.699
310.46, 2289.219
310.68, 2364.994
310.89, 2679.153
311.11, 2469.441
311.32, 2351.887
311.53, 2333.046
311.75, 2793.839
311.96, 2776.226
312.17, 2406.363
312.39, 2369.500
312.60, 2708.234
312.81, 2805.717
313.03, 2374.825
313.24, 2381.378
313.45, 2626.725
313.67, 2754.518
313.88, 2428.072
314.09, 2404.315
314.31, 2594.367
314.52, 2711.101
314.73, 2403.496
314.95, 2315.843
315.16, 3005.189
315.37, 2845.448
315.58, 2312.976
315.80, 2201.157
316.01, 2492.378
316.22, 2641.060
316.44, 2398.581
316.65, 2562.418
316.86, 2657.854
317.08, 2742.230
317.29, 2465.754
317.50, 2292.496
317.72, 2534.566
317.93, 2898.285
318.14, 2403.496
318.35, 2536.205
318.57, 2605.835
318.78, 2899.105
318.99, 2432.987
319.21, 2218.769
319.42, 2847.086
319.63, 2566.514
319.85, 2203.205
320.06, 2410.869
320.27, 2606.655
320.48, 2360.489
320.70, 2299.050
320.91, 2417.422
321.12, 2779.503
321.34, 2665.636
321.55, 2369.909
321.76, 2360.898
321.97, 2806.946
322.19, 2560.780
322.40, 2419.880
322.61, 2479.271
322.83, 2602.149
323.04, 2680.791
323.25, 2405.954
323.46, 2407.182
323.68, 2734.857
323.89, 2503.437
324.10, 2332.227
324.31, 2464.526
324.53, 2675.466
324.74, 2862.241
324.95, 2404.725
325.16, 2551.769
325.38, 2775.407
325.59, 2783.599
325.80, 2371.957
326.01, 2384.655
326.23, 2878.625
326.44, 2722.160
326.65, 2366.223
326.86, 2543.987
327.08, 2694.308
327.29, 2691.850
327.50, 2396.123
327.71, 2502.208
327.93, 2259.729
328.14, 2527.603
328.35, 2318.301
328.56, 2448.142
328.78, 2733.629
328.99, 3043.282
329.20, 2367.042
329.41, 2442.408
329.63, 2684.068
329.84, 2573.478
330.05, 2376.053
330.26, 2321.987
330.48, 2346.563
330.69, 2550.131
330.90, 2368.271
331.11, 2249.898
331.32, 2566.514
331.54, 2788.924
331.75, 2347.382
331.96, 2398.171
332.17, 2921.223
332.39, 2432.168
332.60, 2285.533
332.81, 2298.640
333.02, 2462.887
333.23, 2444.456
333.45, 2344.515
333.66, 2496.474
333.87, 2627.953
334.08, 2569.382
334.29, 2396.533
334.51, 2423.566
334.72, 2776.636
334.93, 2685.706
335.14, 2442.817
335.35, 2358.850
335.57, 2469.850
335.78, 2641.880
335.99, 2284.304
336.20, 2232.696
336.41, 2523.917
336.63, 2809.404
336.84, 2263.005
337.05, 2540.300
337.26, 2829.474
337.47, 2452.238
337.69, 2428.891
337.90, 2322.397
338.11, 2720.931
338.32, 2996.588
338.53, 2255.223
338.74, 2342.057
338.96, 2850.363
339.17, 3047.377
339.38, 2700.042
339.59, 2432.168
339.80, 2697.994
340.01, 2866.337
340.23, 2529.651
340.44, 2285.533
340.65, 2767.625
340.86, 2660.721
341.07, 2294.544
341.28, 2426.024
341.50, 2771.721
341.71, 2528.832
341.92, 2453.057
342.13, 2269.559
342.34, 2476.404
342.55, 2496.474
342.77, 2319.529
342.98, 2303.555
343.19, 2705.367
343.40, 2751.241
343.61, 2281.028
343.82, 2511.219
344.03, 2379.740
344.25, 2848.315
344.46, 2297.821
344.67, 2503.027
344.88, 2627.134
345.09, 2718.474
345.30, 2362.946
345.51, 2521.459
345.73, 2736.496
345.94, 2699.632
346.15, 2506.714
346.36, 2525.965
346.57, 2755.747
346.78, 2492.378
346.99, 2346.153
347.21, 2586.175
347.42, 2714.787
347.63, 2636.145
347.84, 2481.319
348.05, 2411.688
348.26, 2605.426
348.47, 2394.895
348.68, 2270.788
348.89, 2478.452
349.11, 2696.356
349.32, 2789.333
349.53, 2237.201
349.74, 2495.655
349.95, 2382.607
350.16, 2791.791
350.37, 2205.662
350.58, 2423.566
350.79, 2731.990
351.01, 2809.404
351.22, 2502.208
351.43, 2384.655
351.64, 2685.706
351.85, 2659.083
352.06, 2340.419
352.27, 2374.825
352.48, 2564.876
352.69, 2895.418
352.90, 2486.644
353.12, 2501.389
353.33, 2688.983
353.54, 2580.850
353.75, 2430.120
353.96, 2378.920
354.17, 2599.692
354.38, 2725.846
354.59, 2476.813
354.80, 2430.529
355.01, 2548.492
355.22, 2685.297
355.43, 2296.183
355.64, 2523.507
355.86, 2826.606
356.07, 2832.750
356.28, 2377.282
356.49, 2161.836
356.70, 2613.208
356.91, 3010.514
357.12, 2430.939
357.33, 2381.788
357.54, 2702.500
357.75, 2660.721
357.96, 2267.511
358.17, 2416.194
358.38, 2533.747
358.59, 2691.441
358.80, 2317.072
359.02, 2435.035
359.23, 2419.470
359.44, 2810.223
359.65, 2224.094
359.86, 2468.622
360.07, 2537.024
360.28, 2431.348
360.49, 2313.385
360.70, 2471.898
360.91, 2422.337
361.12, 2712.739
361.33, 2410.459
361.54, 2433.396
361.75, 2769.673
361.96, 2585.765
362.17, 2509.581
362.38, 2376.873
362.59, 2804.079
362.80, 2907.296
363.01, 2359.670
363.22, 2408.002
363.43, 2412.098
363.64, 2827.016
363.85, 2307.242
364.06, 2392.847
364.27, 2542.758
364.48, 2720.112
364.69, 2210.987
364.90, 2364.585
365.11, 2595.596
365.33, 2697.175
365.54, 2316.253
365.75, 2582.079
365.96, 2790.562
366.17, 2586.175
366.38, 2310.109
366.59, 2474.356
366.80, 2454.695
367.01, 2875.758
367.22, 2269.559
367.43, 2377.692
367.64, 2691.031
367.85, 2720.112
368.06, 2275.703
368.27, 2322.806
368.48, 2936.378
368.69, 2422.747
368.90, 2410.459
369.11, 2334.275
369.32, 2760.662
369.53, 2652.529
369.74, 2345.334
369.94, 2414.146
370.15, 2574.297
370.36, 2818.005
370.57, 2346.153
370.78, 2450.190
370.99, 2600.920
371.20, 2832.750
371.41, 2350.249
371.62, 2491.559
371.83, 2512.858
372.04, 2606.245
372.25, 2347.382
372.46, 2455.105
372.67, 2630.001
372.88, 2933.920
373.09, 2274.474
373.30, 2372.777
373.51, 2650.481
373.72, 2708.643
373.93, 2434.625
374.14, 2297.411
374.35, 2687.345
374.56, 2908.116
374.77, 2473.127
374.98, 2213.854
375.19, 2883.130
375.40, 2774.178
375.61, 2259.729
375.82, 2526.784
376.03, 2645.156
376.23, 2758.614
376.44, 2336.323
376.65, 2421.928
376.86, 2447.732
377.07, 2824.149
377.28, 2472.717
377.49, 2330.588
377.70, 2899.514
377.91, 2618.123
378.12, 2289.629
378.33, 2312.566
378.54, 2410.459
378.75, 2918.765
378.96, 2369.500
379.17, 2367.042
379.37, 2624.267
379.58, 2541.529
379.79, 2219.589
380.00, 2334.275
380.21, 2442.408
380.42, 2734.448
380.63, 2342.876
380.84, 2361.718
381.05, 2636.965
381.26, 2784.418
381.47, 2423.976
381.68, 2450.190
381.89, 2734.857
382.09, 2674.647
382.30, 2573.478
382.51, 2496.064
382.72, 2795.887
382.93, 2543.577
383.14, 2308.061
383.35, 2430.939
383.56, 2653.348
383.77, 2654.168
383.98, 2399.400
384.18, 2460.839
384.39, 2759.433
384.60, 2735.267
384.81, 2251.537
385.02, 2297.002
385.23, 2574.706
385.44, 2591.090
385.65, 2287.991
385.86, 2420.699
386.06, 2614.027
386.27, 2964.230
386.48, 2398.171
386.69, 2522.278
386.90, 2473.537
387.11, 2573.887
387.32, 2389.980
387.53, 2378.920
387.73, 2556.275
387.94, 2847.905
388.15, 2470.260
388.36, 2360.079
388.57, 2923.271
388.78, 2765.987
388.99, 2489.101
389.20, 2280.208
389.40, 3444.683
389.61, 2600.920
389.82, 2379.740
390.03, 2213.445
390.24, 2784.418
390.45, 2650.072
390.66, 2451.009
390.86, 2314.205
391.07, 2451.419
391.28, 2441.179
391.49, 2242.116
391.70, 2291.267
391.91, 2491.968
392.12, 3069.086
392.32, 2279.389
392.53, 2351.068
392.74, 2605.426
392.95, 2740.592
393.16, 2274.064
393.37, 2333.046
393.57, 2693.079
393.78, 2427.253
393.99, 2383.016
394.20, 2400.629
394.41, 2715.197
394.62, 2671.780
394.82, 2371.138
395.03, 2307.242
395.24, 2684.887
395.45, 2603.378
395.66, 2351.478
395.87, 2437.902
396.07, 2901.972
396.28, 2690.621
396.49, 2378.920
396.70, 2329.769
396.91, 2572.249
397.11, 2707.824
397.32, 2179.858
397.53, 2249.079
397.74, 2510.400
397.95, 2670.551
398.16, 2396.123
398.36, 2570.610
398.57, 2613.618
398.78, 2582.898
398.99, 2489.101
399.20, 2217.541
399.40, 2404.315
399.61, 2861.012
399.82, 2369.909
400.03, 2337.961
400.24, 2839.713
400.44, 2450.599
400.65, 2442.408
400.86, 2426.024
401.07, 2488.692
401.27, 2727.485
401.48, 2380.968
401.69, 2359.260
401.90, 2735.267
402.11, 2562.418
402.31, 2358.031
402.52, 2435.854
402.73, 2422.747
402.94, 2470.260
403.15, 2433.806
403.35, 2278.160
403.56, 2857.326
403.77, 2546.035
403.98, 2398.581
404.18, 2239.249
404.39, 2683.658
404.60, 2579.212
404.81, 2460.430
405.01, 2245.803
405.22, 2439.540
405.43, 2763.939
405.64, 2373.596
405.85, 2445.684
406.05, 2921.223
406.26, 2805.717
406.47, 2520.640
406.68, 2405.134
406.88, 2987.577
407.09, 2611.160
407.30, 2275.293
407.51, 2232.696
407.71, 2820.053
407.92, 2464.935
408.13, 2171.256
408.34, 2380.559
408.54, 2371.548
408.75, 2401.858
408.96, 2423.157
409.16, 2479.271
409.37, 2566.514
409.58, 2831.522
409.79, 2464.935
409.99, 2362.127
410.20, 2870.433
410.41, 2532.928
410.62, 2439.540
410.82, 2356.393
411.03, 2798.344
411.24, 2496.474
411.45, 2354.754
411.65, 2432.577
411.86, 2620.171
412.07, 2544.396
412.27, 2505.075
412.48, 2409.640
412.69, 2612.389
412.90, 2860.603
413.10, 2414.146
413.31, 2358.441
413.52, 2649.252
413.72, 2368.271
413.93, 2229.419
414.14, 2218.360
414.35, 2738.544
414.55, 2693.079
414.76, 2412.917
414.97, 2319.120
415.17, 2575.526
415.38, 2831.931
415.59, 2358.441
415.79, 2280.208
416.00, 2973.241
416.21, 2910.983
416.41, 2219.998
416.62, 2247.031
416.83, 2872.481
417.04, 2857.736
417.24, 2388.341
417.45, 2457.972
417.66, 2787.285
417.86, 2505.485
418.07, 2350.659
418.28, 2363.766
418.48, 2999.865
418.69, 2565.286
418.90, 2493.197
419.10, 2364.175
419.31, 2537.843
419.52, 2413.736
419.72, 2346.972
419.93, 2269.969
420.14, 2816.367
420.34, 2818.005
420.55, 2342.876
420.76, 2493.197
420.96, 2481.319
421.17, 2628.773
421.38, 2410.050
421.58, 2432.168
421.79, 2843.809
422.00, 2613.618
422.20, 2356.393
422.41, 2266.282
422.62, 2399.810
422.82, 2855.688
423.03, 2505.895
423.24, 2478.042
423.44, 2351.068
423.65, 2635.326
423.85, 2307.651
424.06, 2550.131
424.27, 2833.160
424.47, 2713.968
424.68, 2820.872
424.89, 2638.603
425.09, 2849.544
425.30, 2724.208
425.51, 2364.585
425.71, 2408.411
425.92, 2674.647
426.12, 3037.547
426.33, 2309.290
426.54, 2253.175
426.74, 2727.894
426.95, 2572.658
427.16, 2305.194
427.36, 2239.249
427.57, 2675.876
427.77, 2824.558
427.98, 2521.869
428.19, 2387.522
428.39, 2509.991
428.60, 2842.990
428.81, 2358.031
429.01, 2380.149
429.22, 2787.695
429.42, 2579.621
429.63, 2567.743
429.84, 2514.086
430.04, 2428.072
430.25, 2913.850
430.45, 2361.308
430.66, 2223.275
430.87, 2446.094
431.07, 2540.300
431.28, 2417.832
431.48, 2277.341
431.69, 2648.024
431.90, 2594.367
432.10, 2495.245
432.31, 2272.017
432.51, 2559.551
432.72, 2822.511
432.92, 2282.256
433.13, 2423.566
433.34, 2749.603
433.54, 2736.905
433.75, 2376.873
433.95, 2541.939
434.16, 2797.935
434.37, 2510.400
434.57, 2453.057
434.78, 2501.799
434.98, 2454.286
435.19, 2615.256
435.39, 2362.537
435.60, 2427.662
435.81, 2836.027
436.01, 2437.083
436.22, 2401.039
436.42, 2442.817
436.63, 2538.662
436.83, 2779.913
437.04, 2402.677
437.24, 2386.293
437.45, 2545.216
437.66, 2594.776
437.86, 2312.566
438.07, 2289.629
438.27, 2631.640
438.48, 2700.861
438.68, 2437.492
438.89, 2401.039
439.09, 2734.857
439.30, 2505.485
439.50, 2436.264
439.71, 2401.858
439.92, 2651.710
440.12, 2570.610
440.33, 2279.389
440.53, 2495.655
440.74, 2479.271
440.94, 2709.053
441.15, 2619.762
441.35, 2292.496
441.56, 2708.643
441.76, 2700.452
441.97, 2306.013
442.17, 2369.090
442.38, 2629.592
442.58, 2749.193
442.79, 2337.961
443.00, 2408.411
443.20, 2630.411
443.41, 2610.341
443.61, 2286.762
443.82, 2483.776
444.02, 2489.511
444.23, 2312.157
444.43, 2459.610
444.64, 2545.625
444.84, 2833.570
445.05, 2509.581
445.25, 2464.116
445.46, 2348.611
445.66, 2480.090
445.87, 2589.042
446.07, 2355.574
446.28, 2424.795
446.48, 2643.928
446.69, 2455.924
446.89, 2438.721
447.10, 2426.433
447.30, 2846.677
447.51, 2669.322
447.71, 2534.976
447.92, 2383.836
448.12, 2593.548
448.33, 2686.525
448.53, 2332.636
448.73, 2499.341
448.94, 3034.680
449.14, 2537.024
449.35, 2422.337
449.55, 2392.847
449.76, 2773.769
449.96, 2809.404
450.17, 2470.670
450.37, 2378.920
450.58, 2963.820
450.78, 2483.367
450.99, 2251.537
451.19, 2561.599
451.40, 2504.256
451.60, 2539.891
451.81, 2297.411
452.01, 2371.957
452.21, 2771.311
452.42, 2553.407
452.62, 2356.802
452.83, 2402.267
453.03, 2738.544
453.24, 2751.651
453.44, 2573.068
453.65, 2345.334
453.85, 3090.794
454.06, 2768.035
454.26, 2400.219
454.46, 2546.035
454.67, 2820.053
454.87, 2658.673
455.08, 2571.839
455.28, 2504.256
455.49, 2656.215
455.69, 3038.776
455.89, 2483.776
456.10, 2322.397
456.30, 3055.979
456.51, 2717.245
456.71, 2358.441
456.92, 2426.433
457.12, 2803.669
457.32, 2511.629
457.53, 2576.754
457.73, 2463.297
457.94, 2880.673
458.14, 2495.245
458.35, 2266.692
458.55, 2351.887
458.75, 2861.832
458.96, 2820.872
459.16, 2170.847
459.37, 2387.112
459.57, 2427.253
459.77, 2811.451
459.98, 2420.289
460.18, 2444.456
460.39, 2845.038
460.59, 2507.123
460.79, 2191.736
461.00, 2342.467
461.20, 2690.621
461.41, 2831.931
461.61, 2298.231
461.81, 2523.917
462.02, 2612.799
462.22, 2864.289
462.43, 2396.123
462.63, 2290.039
462.83, 2866.747
463.04, 2752.060
463.24, 2365.814
463.45, 2354.345
463.65, 2537.843
463.85, 2833.160
464.06, 2251.537
464.26, 2606.245
464.46, 2565.286
464.67, 2817.186
464.87, 2394.485
465.08, 2369.500
465.28, 2712.330
465.48, 2628.773
465.69, 2341.647
465.89, 2411.278
466.09, 3019.935
466.30, 2875.348
466.50, 2354.754
466.71, 2352.706
466.91, 2789.743
467.11, 2842.581
467.32, 2469.441
467.52, 2347.791
467.72, 2543.987
467.93, 2528.832
468.13, 2488.692
468.33, 2269.969
468.54, 2697.994
468.74, 3050.245
468.94, 2516.544
469.15, 2494.836
469.35, 2533.337
469.55, 2586.175
469.76, 2433.396
469.96, 2429.301
470.17, 2773.359
470.37, 2994.540
470.57, 2430.939
470.78, 2371.138
470.98, 2787.285
471.18, 2795.068
471.39, 2415.784
471.59, 2562.418
471.79, 2569.791
471.99, 2411.278
472.20, 2373.186
472.40, 2375.644
472.60, 2471.898
472.81, 2602.149
473.01, 2478.861
473.21, 2420.289
473.42, 3005.189
473.62, 2885.998
473.82, 2423.976
474.03, 2745.507
474.23, 2552.998
474.43, 2811.042
474.64, 2219.179
474.84, 2501.389
475.04, 2655.396
475.25, 2665.636
475.45, 2284.304
475.65, 2408.821
475.85, 2373.186
476.06, 2788.514
476.26, 2471.489
476.46, 2378.101
476.67, 2600.920
476.87, 2754.928
477.07, 2330.588
477.28, 2423.566
477.48, 2747.145
477.68, 2865.108
477.88, 2191.736
478.09, 2426.433
478.29, 2585.765
478.49, 2881.082
478.70, 2275.293
478.90, 2492.788
479.10, 2533.337
479.30, 2865.927
479.51, 2348.611
479.71, 2289.629
479.91, 2758.614
480.11, 2821.282
480.32, 2502.208
480.52, 2522.688
480.72, 2627.954
480.93, 2493.197
481.13, 2188.459
481.33, 2313.386
481.53, 2888.046
481.74, 2709.872
481.94, 2308.061
482.14, 2432.987
482.34, 2607.474
482.55, 2661.540
482.75, 2483.776
482.95, 2344.515
483.15, 2737.725
483.36, 2370.319
483.56, 2576.754
483.76, 2320.349
483.96, 2613.208
484.17, 2747.555
484.37, 2379.740
484.57, 2430.120
484.77, 2660.311
484.98, 2944.979
485.18, 2362.127
485.38, 2442.408
485.58, 2606.245
485.79, 2777.865
485.99, 2175.352
486.19, 2491.149
486.39, 2901.972
486.59, 2428.891
486.80, 2489.511
487.00, 2408.411
487.20, 2761.891
487.40, 2676.286
487.61, 2448.142
487.81, 2313.386
488.01, 2844.219
488.21, 2612.799
488.41, 2493.607
488.62, 2523.917
488.82, 2543.168
489.02, 2581.669
489.22, 2401.858
489.43, 2452.238
489.63, 2855.278
489.83, 2534.976
490.03, 2340.419
490.23, 2245.803
490.44, 2421.109
490.64, 2702.090
490.84, 2427.253
491.04, 2487.053
491.24, 2604.197
491.45, 2930.643
491.65, 2560.780
491.85, 2451.828
492.05, 3174.761
492.25, 2734.038
492.45, 2480.500
492.66, 2364.994
492.86, 2524.736
493.06, 2727.894
493.26, 2631.640
493.46, 2418.241
493.67, 3154.281
493.87, 2392.437
494.07, 2546.035
494.27, 2338.371
494.47, 2464.935
494.67, 2674.647
494.88, 2403.906
495.08, 2420.289
495.28, 2609.522
495.48, 2616.075
495.68, 2385.474
495.89, 2375.644
496.09, 2384.655
496.29, 2632.869
496.49, 2546.854
496.69, 2456.743
496.89, 2391.208
497.09, 2688.983
497.30, 2424.795
497.50, 2424.795
497.70, 2744.688
497.90, 2980.614
498.10, 2519.411
498.30, 2810.632
498.51, 2681.610
498.71, 2614.846
498.91, 2265.463
499.11, 2509.990
499.31, 2801.212
499.51, 2778.684
499.71, 2380.968
499.92, 2415.374
500.12, 2759.433
500.32, 2629.592
500.52, 2546.854
500.72, 2229.419
500.92, 2903.200
501.12, 2765.987
501.32, 2147.090
501.53, 2335.913
501.73, 2826.606
501.93, 2734.448
502.13, 2270.378
502.33, 2172.485
502.53, 2591.909
502.73, 2734.448
502.93, 2205.662
503.14, 2435.444
503.34, 2516.544
503.54, 2629.182
503.74, 2408.002
503.94, 2311.338
504.14, 2747.555
504.34, 2709.872
504.54, 2364.585
504.74, 2361.308
504.95, 2718.474
505.15, 2897.057
505.35, 2314.614
505.55, 2356.393
505.75, 2677.924
505.95, 2703.319
506.15, 2419.061
506.35, 2443.227
506.55, 2601.330
506.75, 2688.164
506.95, 2394.075
507.16, 2511.629
507.36, 2810.632
507.56, 2860.193
507.76, 2389.160
507.96, 2500.979
508.16, 2421.518
508.36, 2666.455
508.56, 2448.142
508.76, 2433.396
508.96, 2680.382
509.16, 3026.898
509.36, 2336.323
509.57, 2532.109
509.77, 2594.367
509.97, 2580.850
510.17, 2426.843
510.37, 2396.943
510.57, 2483.367
510.77, 2485.824
510.97, 2428.891
511.17, 2363.356
511.37, 2824.558
511.57, 2822.511
511.77, 2415.784
511.97, 2319.529
512.17, 2854.049
512.37, 2911.802
512.57, 2366.633
512.78, 2394.485
512.98, 2558.323
513.18, 2389.570
513.38, 2348.611
513.58, 2485.824
513.78, 2818.824
513.98, 2667.275
514.18, 2589.042
514.38, 2256.862
514.58, 2175.762
514.78, 2493.607
514.98, 2481.319
515.18, 2457.972
515.38, 2568.153
515.58, 2528.832
515.78, 2326.492
515.98, 2462.478
516.18, 2676.695
516.38, 2882.721
516.58, 2380.559
516.78, 2227.371
516.98, 2412.098
517.18, 2626.315
517.38, 2367.452
517.58, 2412.098
517.78, 2496.884
517.98, 2852.820
518.18, 2393.256
518.38, 2372.777
518.58, 2938.016
518.78, 2592.728
518.98, 2483.776
519.18, 2394.075
519.38, 2665.227
519.58, 2596.415
519.78, 2379.740
519.98, 2530.470
520.18, 2639.013
520.38, 2589.861
520.58, 2448.551
520.78, 2391.208
520.98, 2630.821
521.18, 2774.998
521.38, 2451.419
521.58, 2500.979
521.78, 2796.706
521.98, 2627.134
522.18, 2368.271
522.38, 2517.773
522.58, 2327.721
522.78, 2675.466
522.98, 2541.939
523.18, 2328.131
523.38, 2587.404
523.58, 2534.566
523.78, 2255.223
523.98, 2396.533
524.18, 2580.850
524.38, 2608.703
524.58, 2321.168
524.78, 2428.072
524.98, 2700.042
525.18, 2537.843
525.38, 2468.622
525.58, 2509.991
525.78, 2720.112
525.98, 2712.739
526.18, 2388.751
526.38, 2342.057
526.58, 2457.563
526.78, 2464.526
526.98, 2605.016
527.17, 2230.238
527.37, 2571.020
527.57, 2517.773
527.77, 2268.740
527.97, 2405.954
528.17, 2398.171
528.37, 2662.359
528.57, 2413.326
528.77, 2405.544
528.97, 2865.108
529.17, 2713.968
529.37, 2469.850
529.57, 2407.592
529.77, 2566.514
529.97, 2866.747
530.17, 2591.090
530.36, 2426.433
530.56, 2791.791
530.76, 2467.393
530.96, 2545.625
531.16, 2369.909
531.36, 2826.197
531.56, 2778.684
531.76, 2332.636
531.96, 2307.651
532.16, 2614.846
532.36, 2568.153
532.56, 2341.238
532.76, 2430.120
532.95, 2625.496
533.15, 2659.083
533.35, 2516.134
533.55, 2369.090
533.75, 2906.887
533.95, 2603.787
534.15, 2344.105
534.35, 2458.791
534.55, 2714.378
534.75, 2565.286
534.94, 2304.784
535.14, 2405.954
535.34, 2584.127
535.54, 2556.275
535.74, 2557.503
535.94, 2307.242
536.14, 2649.252
536.34, 3045.739
536.54, 2588.632
536.73, 2402.267
536.93, 2666.455
537.13, 2950.304
537.33, 2587.404
537.53, 2406.363
537.73, 2498.112
537.93, 2547.264
538.13, 2627.544
538.32, 2553.407
538.52, 2455.105
538.72, 2555.046
538.92, 2531.699
539.12, 2347.382
539.32, 2846.677
539.52, 2792.201
539.72, 2430.120
539.91, 2290.039
540.11, 2539.481
540.31, 2638.603
540.51, 2312.157
540.71, 2550.540
540.91, 2956.448
541.11, 2473.537
541.30, 2274.884
541.50, 2202.386
541.70, 2396.943
541.90, 2618.533
542.10, 2238.020
542.30, 2392.437
542.49, 2675.466
542.69, 2595.186
542.89, 2242.526
543.09, 2399.810
543.29, 2840.942
543.49, 2879.854
543.68, 2562.009
543.88, 2422.747
544.08, 2763.939
544.28, 2657.444
544.48, 2586.994
544.68, 2342.876
544.87, 2813.499
545.07, 2700.042
545.27, 2393.256
545.47, 2370.319
545.67, 2577.164
545.87, 2636.965
546.06, 2300.688
546.26, 2335.913
546.46, 2581.260
546.66, 2630.411
546.86, 2801.212
547.05, 2321.987
547.25, 2803.260
547.45, 3082.603
547.65, 2346.972
547.85, 2206.482
548.04, 2867.975
548.24, 2856.916
548.44, 2475.994
548.64, 2524.326
548.84, 2982.662
549.03, 2473.127
549.23, 2360.898
549.43, 2438.312
549.63, 2544.806
549.83, 2733.629
550.02, 2390.389
550.22, 2397.352
550.42, 2666.046
550.62, 2819.234
550.82, 2231.057
551.01, 2451.828
551.21, 2607.883
551.41, 3037.138
551.61, 2265.463
551.80, 2472.717
552.00, 2558.323
552.20, 2724.618
552.40, 2284.714
552.60, 2485.415
552.79, 2804.898
552.99, 2636.555
553.19, 2534.157
553.39, 2260.958
553.58, 2655.806
553.78, 2360.898
553.98, 2618.123
554.18, 2303.555
554.37, 2430.120
554.57, 2633.278
554.77, 2520.230
554.97, 2501.799
555.16, 2840.942
555.36, 3130.525
555.56, 2419.880
555.76, 2360.079
555.95, 3137.079
556.15, 2653.758
556.35, 2454.286
556.55, 2479.681
556.74, 2360.079
556.94, 2561.190
557.14, 2275.703
557.34, 2426.024
557.53, 2682.020
557.73, 2655.396
557.93, 2387.522
558.13, 2288.400
558.32, 2642.699
558.52, 2678.743
558.72, 2240.478
558.92, 2463.706
559.11, 2746.736
559.31, 2702.090
559.51, 2477.223
559.70, 2441.998
559.90, 2642.289
560.10, 2459.610
560.30, 2314.205
560.49, 2518.592
560.69, 2552.998
560.89, 2872.071
561.08, 2301.507
561.28, 2339.600
561.48, 2608.703
561.68, 2701.271
561.87, 2380.149
562.07, 2360.898
562.27, 2441.588
562.46, 2684.477
562.66, 2385.064
562.86, 2337.142
563.05, 2577.573
563.25, 2446.503
563.45, 2259.729
563.65, 2620.581
563.84, 2847.905
564.04, 2631.640
564.24, 2367.861
564.43, 2360.079
564.63, 2804.079
564.83, 2651.300
565.02, 2337.552
565.22, 2379.330
565.42, 2501.389
565.61, 2700.452
565.81, 2412.917
566.01, 2519.411
566.20, 2618.123
566.40, 2382.607
566.60, 2371.548
566.79, 2303.965
566.99, 2836.027
567.19, 2630.001
567.38, 2487.872
567.58, 2385.884
567.78, 2579.621
567.97, 2475.175
568.17, 2183.544
568.37, 2435.854
568.56, 2905.248
568.76, 2581.669
568.96, 2404.315
569.15, 2465.754
569.35, 3891.141
569.55, 2904.020
569.74, 2349.430
569.94, 2499.751
570.14, 2685.297
570.33, 2684.068
570.53, 2251.537
570.73, 2274.884
570.92, 2477.223
571.12, 2645.156
571.31, 2144.633
571.51, 2362.537
571.71, 2649.252
571.90, 2838.894
572.10, 2267.921
572.30, 2353.526
572.49, 2915.079
572.69, 2790.972
572.88, 2426.843
573.08, 2262.186
573.28, 3007.237
573.47, 2674.647
573.67, 2219.589
573.87, 2320.758
574.06, 2596.005
574.26, 2714.787
574.45, 2356.802
574.65, 2245.803
574.85, 2843.400
575.04, 2595.596
575.24, 2491.968
575.44, 2321.168
575.63, 2731.990
575.83, 2396.533
576.02, 2315.024
576.22, 2346.972
576.42, 2783.190
576.61, 2599.692
576.81, 2266.282
577.00, 2453.057
577.20, 2702.500
577.40, 2677.924
577.59, 2195.013
577.79, 2406.773
577.98, 2590.271
578.18, 2521.050
578.37, 2482.138
578.57, 2179.448
578.77, 2433.806
578.96, 2358.850
579.16, 2175.352
579.35, 2227.371
579.55, 2442.408
579.75, 2390.799
579.94, 2332.227
580.14, 2236.382
580.33, 2967.507
580.53, 2602.149
580.72, 2287.172
580.92, 2441.998
581.12, 2553.817
581.31, 2608.293
581.51, 2452.238
581.70, 2365.814
581.90, 3180.905
582.09, 2419.880
582.29, 2175.762
582.48, 2312.976
582.68, 2726.256
582.88, 2808.994
583.07, 2279.799
583.27, 2185.592
583.46, 2643.518
583.66, 2896.237
583.85, 2441.588
584.05, 2441.588
584.24, 3075.639
584.44, 2823.739
584.63, 2333.865
584.83, 2308.061
585.03, 2739.773
585.22, 2506.304
585.42, 2206.072
585.61, 2331.817
585.81, 2597.644
586.00, 2596.824
586.20, 2298.640
586.39, 2317.891
586.59, 2513.677
586.78, 2496.064
586.98, 2393.256
587.17, 2475.994
587.37, 2757.385
587.56, 2933.920
587.76, 2401.039
587.95, 2394.895
588.15, 2529.651
588.34, 2739.773
588.54, 2324.854
588.74, 2369.090
588.93, 2376.053
589.13, 2734.857
589.32, 2289.219
589.52, 2169.618
589.71, 2828.245
589.91, 2713.559
590.10, 2220.817
590.30, 2346.563
590.49, 2606.655
590.69, 2746.736
590.88, 2312.157
591.08, 2248.670
591.27, 2665.636
591.47, 2408.002
591.66, 2312.566
591.85, 2275.703
592.05, 2709.053
592.24, 2856.507
592.44, 2271.197
592.63, 2174.124
592.83, 2727.485
593.02, 2624.677
593.22, 2200.747
593.41, 2112.275
593.61, 2512.448
593.80, 3200.975
594.00, 2190.917
594.19, 2288.810
594.39, 2651.300
594.58, 2484.186
594.78, 2270.378
594.97, 2403.496
595.17, 2598.463
595.36, 2770.492
595.56, 2293.725
595.75, 2324.854
595.94, 2731.581
596.14, 2866.747
596.33, 2315.433
596.53, 2137.670
596.72, 2637.784
596.92, 2644.337
597.11, 2292.496
597.31, 2422.747
597.50, 2736.496
597.69, 2892.961
597.89, 2406.773
598.08, 2242.935
598.28, 2790.972
598.47, 2668.503
598.67, 2297.002
598.86, 2370.319
599.06, 2866.747
599.25, 2607.883
599.44, 2425.205
599.64, 2380.149
599.83, 2617.714
600.03, 2587.404
600.22, 2190.098
600.42, 2399.810
600.61, 2541.120
600.80, 2481.319
601.00, 2419.061
601.19, 2322.397
601.39, 2824.558
601.58, 2601.330
601.78, 2408.821
601.97, 2367.452
602.16, 2662.359
602.36, 2518.592
602.55, 2381.788
602.75, 2249.079
602.94, 2842.990
603.13, 2865.927
603.33, 2209.758
603.52, 2310.518
603.72, 2799.573
603.91, 2493.197
604.10, 2323.625
604.30, 2321.577
604.49, 2625.496
604.69, 2644.337
604.88, 2158.149
605.07, 2371.548
605.27, 2587.404
605.46, 2454.286
605.66, 2403.496
605.85, 2310.518
606.04, 2683.658
606.24, 2764.348
606.43, 2148.319
606.62, 2275.293
606.82, 2535.385
607.01, 2704.548
607.21, 2213.854
607.40, 2417.013
607.59, 2635.736
607.79, 2490.330
607.98, 2427.253
608.17, 2154.873
608.37, 2683.658
608.56, 3050.245
608.76, 2086.880
608.95, 2228.190
609.14, 2876.986
609.34, 2556.275
609.53, 2310.518
609.72, 2214.264
609.92, 2521.459
610.11, 2673.828
610.30, 2325.673
610.50, 2273.655
610.69, 2334.684
610.88, 2661.131
611.08, 2306.422
611.27, 2187.231
611.46, 2774.588
611.66, 2549.721
611.85, 2132.755
612.04, 2361.718
612.24, 2755.747
612.43, 2538.662
612.62, 2184.773
612.82, 2300.688
613.01, 2517.363
613.20, 2666.046
613.40, 2281.847
613.59, 2200.338
613.78, 2677.924
613.98, 2297.002
614.17, 2264.644
614.36, 2264.234
614.56, 3434.853
614.75, 2516.954
614.94, 2272.426
615.14, 2213.854
615.33, 2891.732
615.52, 2842.171
615.72, 2218.360
615.91, 2373.596
616.10, 2619.762
616.30, 2649.252
616.49, 2366.223
616.68, 2310.518
616.88, 2957.676
617.07, 2924.909
617.26, 2225.732
617.45, 2356.393
617.65, 3018.296
617.84, 2330.998
618.03, 2202.386
618.23, 2303.146
618.42, 2697.175
618.61, 2491.968
618.80, 2321.168
619.00, 2258.090
619.19, 2828.654
619.38, 2677.924
619.58, 2286.352
619.77, 2307.242
619.96, 2835.208
620.15, 2563.238
620.35, 2418.651
620.54, 2308.061
620.73, 2556.684
620.93, 2708.643
621.12, 2198.290
621.31, 2363.356
621.50, 2444.046
621.70, 3085.879
621.89, 2188.050
622.08, 2099.168
622.27, 2739.773
622.47, 2820.463
622.66, 2215.493
622.85, 2322.806
623.04, 2609.931
623.24, 2509.171
623.43, 2328.540
623.62, 2316.253
623.81, 2627.954
624.01, 2766.806
624.20, 2229.009
624.39, 2443.636
624.58, 2476.813
624.78, 2679.562
624.97, 2207.710
625.16, 2244.574
625.35, 2670.142
625.55, 2682.839
625.74, 2307.651
625.93, 2368.271
626.12, 2537.843
626.32, 2475.175
626.51, 2225.323
626.70, 2244.983
626.89, 2575.116
627.09, 2605.016
627.28, 2227.371
627.47, 2287.991
627.66, 2828.245
627.85, 2666.455
628.05, 2188.050
628.24, 2259.319
628.43, 2733.629
628.62, 2826.606
628.82, 2233.515
629.01, 2470.670
629.20, 2695.946
629.39, 2701.271
629.58, 2177.400
629.78, 2293.315
629.97, 2563.647
630.16, 2581.669
630.35, 2275.293
630.54, 2316.662
630.74, 2447.323
630.93, 2501.799
631.12, 2265.463
631.31, 2145.862
631.50, 2727.485
631.70, 2841.352
631.89, 2155.692
632.08, 2394.485
632.27, 2368.681
632.46, 2807.356
632.65, 2363.766
632.85, 2200.338
633.04, 2613.618
633.23, 2818.415
633.42, 2260.138
633.61, 2289.629
633.81, 2670.961
634.00, 2611.160
634.19, 2369.500
634.38, 2351.478
634.57, 2574.297
634.76, 2462.478
634.96, 2218.769
635.15, 2267.511
635.34, 2766.806
635.53, 2859.374
635.72, 2383.836
635.91, 2139.718
636.11, 2734.038
636.30, 2707.005
636.49, 2358.850
636.68, 2221.636
636.87, 2412.507
637.06, 3065.809
637.26, 2280.618
637.45, 2271.197
637.64, 2532.518
637.83, 2661.131
638.02, 2213.854
638.21, 2364.585
638.40, 2916.308
638.60, 2985.529
638.79, 2411.278
638.98, 2186.002
639.17, 2697.175
639.36, 2443.636
639.55, 2371.138
639.74, 2270.788
639.93, 2621.400
640.13, 2673.418
640.32, 2205.253
640.51, 2262.596
640.70, 2801.621
640.89, 2650.891
641.08, 2322.397
641.27, 2253.994
641.46, 2701.271
641.66, 2787.695
641.85, 2238.839
642.04, 2203.205
642.23, 2783.190
642.42, 2593.138
642.61, 2281.847
642.80, 2227.780
642.99, 2593.548
643.18, 2867.975
643.38, 2315.024
643.57, 2319.120
643.76, 2428.481
643.95, 2877.396
644.14, 2374.415
644.33, 2417.832
644.52, 2862.241
644.71, 2586.585
644.90, 2249.079
645.09, 2213.035
645.29, 2694.717
645.48, 2649.252
645.67, 2439.131
645.86, 2373.186
646.05, 2710.691
646.24, 2922.451
646.43, 2131.935
646.62, 2322.397
646.81, 2541.939
647.00, 2629.592
647.19, 2172.485
647.38, 2338.780
647.57, 2661.131
647.77, 2765.577
647.96, 2324.854
648.15, 2238.430
648.34, 2777.046
648.53, 2925.319
648.72, 2262.596
648.91, 2478.452
649.10, 2747.145
649.29, 2316.253
649.48, 2221.636
649.67, 2303.555
649.86, 2910.983
650.05, 2370.319
650.24, 2268.330
650.43, 2446.913
650.62, 2713.559
650.81, 2939.245
651.01, 2215.902
651.20, 2308.061
651.39, 2736.086
651.58, 2844.629
651.77, 2199.518
651.96, 2297.002
652.15, 2739.773
652.34, 2551.359
652.53, 2362.127
652.72, 2303.555
652.91, 2831.931
653.10, 2741.821
653.29, 2264.234
653.48, 2250.718
653.67, 2748.374
653.86, 2591.090
654.05, 2244.164
654.24, 2292.496
654.43, 2619.352
654.62, 2552.179
654.81, 2267.101
655.00, 2282.666
655.19, 2586.994
655.38, 2778.684
655.57, 2251.946
655.76, 2380.559
655.95, 2664.817
656.14, 2395.304
656.33, 2319.529
656.52, 2303.146
656.71, 2498.931
656.90, 2586.585
657.09, 2260.548
657.28, 2218.769
657.47, 2679.562
657.66, 2737.725
657.85, 2230.238
658.04, 2343.695
658.23, 2441.998
658.42, 2749.603
658.61, 2259.319
658.80, 2218.769
658.99, 2645.156
659.18, 3115.780
659.37, 2122.515
659.56, 2327.721
659.75, 2637.784
659.94, 2562.828
660.13, 2112.685
660.32, 2360.898
660.51, 2681.201
660.70, 2568.153
660.89, 2395.304
661.08, 2188.459
661.27, 2779.503
661.46, 2608.703
661.65, 2249.898
661.84, 2360.898
662.03, 2652.529
662.22, 2783.190
662.41, 2217.131
662.60, 2173.304
662.78, 2523.507
662.97, 2819.234
663.16, 2248.260
663.35, 2285.943
663.54, 2633.278
663.73, 2844.629
663.92, 2304.374
664.11, 2270.788
664.30, 2583.717
664.49, 2847.496
664.68, 2239.659
664.87, 2265.463
665.06, 2618.942
665.25, 2579.212
665.44, 2274.474
665.63, 2252.766
665.82, 2654.987
666.01, 2983.890
666.19, 2234.744
666.38, 2351.068
666.57, 2945.389
666.76, 2550.950
666.95, 2389.160
667.14, 2189.688
667.33, 2538.252
667.52, 2904.020
667.71, 2317.891
667.90, 2477.223
668.09, 2863.060
668.28, 2511.219
668.46, 2229.828
668.65, 2368.681
668.84, 2971.603
669.03, 2449.780
669.22, 2188.869
669.41, 2353.116
669.60, 3023.621
669.79, 2471.898
669.98, 2402.267
670.17, 2223.275
670.35, 2691.031
670.54, 2579.212
670.73, 2260.548
670.92, 2322.397
671.11, 2687.345
671.30, 2313.795
671.49, 2243.755
671.68, 2208.529
671.87, 2740.182
672.05, 2853.640
672.24, 2217.541
672.43, 2389.980
672.62, 2532.928
672.81, 2796.706
673.00, 2309.290
673.19, 2194.194
673.38, 2546.035
673.57, 2546.035
673.75, 2466.983
673.94, 2300.278
674.13, 2668.503
674.32, 2512.858
674.51, 2272.836
674.70, 2285.533
674.89, 2303.965
675.07, 2684.477
675.26, 2540.710
675.45, 2356.802
675.64, 2790.153
675.83, 2750.422
676.02, 2417.422
676.21, 2520.640
676.39, 2713.559
676.58, 2422.747
676.77, 2093.024
676.96, 2227.371
677.15, 2638.193
677.34, 2882.311
677.52, 2291.267
677.71, 2249.898
677.90, 2606.655
678.09, 2703.319
678.28, 2231.876
678.47, 2409.640
678.65, 2645.156
678.84, 2891.732
679.03, 2265.463
679.22, 2231.057
679.41, 2544.396
679.60, 2496.064
679.78, 2403.906
679.97, 2347.791
680.16, 2854.049
680.35, 2772.540
680.54, 2506.304
680.73, 2208.530
680.91, 2571.430
681.10, 2775.817
681.29, 2317.891
681.48, 2347.791
681.67, 2754.518
681.85, 2573.478
682.04, 2280.618
682.23, 2314.614
682.42, 2495.245
682.61, 2378.511
682.79, 2310.928
682.98, 2393.256
683.17, 2582.489
683.36, 2526.784
683.55, 2374.825
683.73, 2406.773
683.92, 2543.168
684.11, 2648.024
684.30, 2431.758
684.49, 2401.858
684.67, 2542.758
684.86, 2503.027
685.05, 2291.677
685.24, 2371.548
685.42, 2908.116
685.61, 2579.621
685.80, 2361.308
685.99, 2457.972
686.18, 2581.669
686.36, 2523.917
686.55, 2501.799
686.74, 2402.677
686.93, 2677.105
687.11, 2729.123
687.30, 2139.308
687.49, 2196.651
687.68, 2717.655
687.86, 2677.105
688.05, 2323.625
688.24, 2265.463
688.43, 2953.581
688.61, 2673.418
688.80, 2294.135
688.99, 2285.124
689.18, 2952.352
689.36, 2781.142
689.55, 2289.219
689.74, 2130.707
689.93, 2653.348
690.11, 2566.514
690.30, 2279.799
690.49, 2279.799
690.68, 3013.381
690.86, 2550.131
691.05, 2209.758
691.24, 2271.607
691.43, 2612.799
691.61, 2835.618
691.80, 2217.541
691.99, 2217.950
692.17, 2739.773
692.36, 2614.846
692.55, 2386.293
692.74, 2183.954
692.92, 2504.256
693.11, 2567.334
693.30, 2446.913
693.49, 2215.083
693.67, 2520.640
693.86, 2638.193
694.05, 2311.747
694.23, 2349.020
694.42, 2919.994
694.61, 2490.740
694.79, 2288.400
694.98, 2292.906
695.17, 2817.595
695.36, 2275.703
695.54, 2382.197
695.73, 2156.101
695.92, 2675.057
696.10, 2804.488
696.29, 2149.548
696.48, 2420.699
696.66, 3064.171
696.85, 2444.865
697.04, 2204.024
697.22, 2281.847
697.41, 2861.832
697.60, 2480.500
697.79, 2216.312
697.97, 2311.338
698.16, 2792.610
698.35, 2598.053
698.53, 2277.751
698.72, 2245.803
698.91, 2986.348
699.09, 2569.791
699.28, 2318.710
699.47, 2394.075
699.65, 2429.710
699.84, 2864.289
700.03, 2348.201
700.21, 2315.843
700.40, 2447.732
700.59, 2651.710
700.77, 2402.267
700.96, 2252.356
701.15, 2807.356
701.33, 2876.167
701.52, 2145.042
701.70, 2303.555
701.89, 2886.407
702.08, 2541.529
702.26, 2183.954
702.45, 2132.755
702.64, 2331.817
702.82, 2589.452
703.01, 2364.585
703.20, 2254.404
703.38, 2948.256
703.57, 2510.810
703.76, 2339.600
703.94, 2303.146
704.13, 2550.540
704.31, 2356.393
704.50, 2433.806
704.69, 2427.253
704.87, 2539.072
705.06, 2561.190
705.25, 2340.419
705.43, 2242.116
705.62, 2657.035
705.80, 2671.370
705.99, 2413.326
706.18, 2235.563
706.36, 2586.994
706.55, 2443.227
706.73, 2276.112
706.92, 2248.670
707.11, 2709.872
707.29, 2899.514
707.48, 2403.496
707.66, 2305.194
707.85, 2450.599
708.04, 2550.950
708.22, 2272.836
708.41, 2315.433
708.59, 2854.459
708.78, 2659.083
708.97, 2073.364
709.15, 2325.673
709.34, 2622.629
709.52, 2617.304
709.71, 2276.522
709.90, 2206.072
710.08, 2833.160
710.27, 2328.950
710.45, 2271.607
710.64, 2195.422
710.82, 2692.669
711.01, 2507.123
711.20, 2324.854
711.38, 2167.980
711.57, 2572.249
711.75, 2406.363
711.94, 2401.858
712.12, 2335.913
712.31, 2552.179
712.50, 2787.695
712.68, 2233.924
712.87, 2413.736
713.05, 2563.647
713.24, 2410.869
713.42, 2238.839
713.61, 2211.806
713.79, 2717.245
713.98, 2437.492
714.17, 2257.271
714.35, 2295.363
714.54, 2553.817
714.72, 2478.042
714.91, 2306.013
715.09, 2403.087
715.28, 2422.747
715.46, 2936.787
715.65, 2238.020
715.83, 2317.481
716.02, 2884.359
716.21, 2714.787
716.39, 2300.688
716.58, 2194.194
716.76, 2631.230
716.95, 2795.477
717.13, 2253.585
717.32, 2249.489
717.50, 2996.178
717.69, 2742.230
717.87, 2270.378
718.06, 2282.256
718.24, 2482.957
718.43, 2693.489
718.61, 2353.526
718.80, 2316.662
718.98, 2641.470
719.17, 2606.245
719.35, 2347.791
719.54, 2333.046
719.72, 2506.714
719.91, 2691.441
720.09, 2197.061
720.28, 2327.312
720.46, 2609.112
720.65, 3010.924
720.83, 2294.544
721.02, 2385.474
721.20, 2852.820
721.39, 2599.282
721.57, 2263.825
721.76, 2424.385
721.94, 2636.145
722.13, 2594.367
722.31, 2325.673
722.50, 2348.201
722.68, 2553.407
722.87, 2877.806
723.05, 2269.969
723.24, 2889.274
723.42, 2470.260
723.61, 2899.105
723.79, 2217.541
723.98, 2214.673
724.16, 2846.677
724.34, 2477.223
724.53, 2435.854
724.71, 2462.068
724.90, 2568.153
725.08, 2725.846
725.27, 2265.873
725.45, 2167.570
725.64, 2420.699
725.82, 2931.462
726.01, 2128.659
726.19, 2216.721
726.38, 2521.459
726.56, 2422.337
726.74, 2416.603
726.93, 2244.574
727.11, 3208.757
727.30, 2622.629
727.48, 2300.688
727.67, 2332.636
727.85, 2710.282
728.04, 2872.481
728.22, 2324.445
728.40, 2376.463
728.59, 2700.861
728.77, 2627.544
728.96, 2199.928
729.14, 2263.825
729.33, 3151.414
729.51, 2727.894
729.69, 2457.153
729.88, 2237.201
730.06, 2674.238
730.25, 2693.898
730.43, 2265.463
730.61, 2326.492
730.80, 2591.090
730.98, 2863.880
731.17, 2351.478
731.35, 2258.090
731.54, 2575.525
731.72, 2786.876
731.90, 2242.935
732.09, 2335.094
732.27, 2815.547
732.46, 2895.009
732.64, 2280.618
732.82, 2285.533
733.01, 2642.289
733.19, 2755.337
733.38, 2113.504
733.56, 2412.098
733.74, 2722.570
733.93, 2805.717
734.11, 2311.338
734.29, 2174.533
734.48, 2701.271
734.66, 2609.112
734.85, 2184.363
735.03, 2224.094
735.21, 2672.190
735.40, 2974.470
735.58, 2343.286
735.77, 2269.149
735.95, 2798.754
736.13, 2512.858
736.32, 2218.360
736.50, 2364.175
736.68, 2486.644
736.87, 2830.293
737.05, 2321.987
737.23, 2386.293
737.42, 2742.230
737.60, 2580.850
737.79, 2295.773
737.97, 2210.987
738.15, 2785.238
738.34, 2592.728
738.52, 2324.035
738.70, 2415.784
738.89, 2777.046
739.07, 2581.669
739.25, 2452.647
739.44, 2323.625
739.62, 2902.381
739.80, 2472.717
739.99, 2182.316
740.17, 2324.854
740.35, 2953.581
740.54, 2831.522
740.72, 2224.504
740.90, 2193.784
741.09, 2407.182
741.27, 2625.086
741.45, 2400.629
741.64, 2246.212
741.82, 2752.470
742.00, 2643.108
742.19, 2371.957
742.37, 2317.072
742.55, 2574.706
742.74, 2625.906
742.92, 2265.053
743.10, 2447.323
743.29, 2865.518
743.47, 2849.134
743.65, 2266.282
743.83, 2406.773
744.02, 2675.876
744.20, 2576.345
744.38, 2197.880
744.57, 2253.994
744.75, 2486.644
744.93, 2553.817
745.12, 2340.828
745.30, 2279.389
745.48, 3143.632
745.66, 2454.286
745.85, 2247.031
746.03, 2251.127
746.21, 2852.820
746.40, 2630.411
746.58, 2329.769
746.76, 2232.696
746.94, 2848.315
747.13, 2734.038
747.31, 2275.293
747.49, 2391.618
747.68, 2656.215
747.86, 2816.367
748.04, 2248.670
748.22, 2238.020
748.41, 2851.182
748.59, 2834.389
748.77, 2209.349
748.95, 2396.123
749.14, 2579.212
749.32, 2713.968
749.50, 2328.131
749.68, 2215.083
749.87, 2555.865
750.05, 2674.647
750.23, 2280.208
750.42, 2359.670
750.60, 2562.418
750.78, 2592.728
750.96, 2437.492
751.15, 2432.577
751.33, 2361.308
751.51, 2825.378
751.69, 2340.419
751.87, 2312.976
752.06, 2424.385
752.24, 2600.101
752.42, 2274.064
752.60, 2197.061
752.79, 2919.584
752.97, 2766.806
753.15, 2233.515
753.33, 2306.013
753.52, 2553.817
753.70, 2653.758
753.88, 2243.755
754.06, 2373.596
754.24, 2567.334
754.43, 2912.621
754.61, 2244.983
754.79, 2233.515
754.97, 2541.939
755.16, 2811.861
755.34, 2404.315
755.52, 2405.544
755.70, 2662.769
755.88, 2435.854
756.07, 2316.662
756.25, 2287.991
756.43, 2728.714
756.61, 2440.769
756.79, 2352.706
756.98, 2233.105
757.16, 2707.415
757.34, 2416.194
757.52, 2253.994
757.70, 2312.976
757.89, 2805.717
758.07, 3161.245
758.25, 2325.673
758.43, 2190.098
758.61, 2718.474
758.80, 2724.618
758.98, 2356.802
759.16, 2312.976
759.34, 2734.038
759.52, 2594.776
759.70, 2318.301
759.89, 2329.360
760.07, 2602.559
760.25, 2631.230
760.43, 2150.367
760.61, 2308.061
760.79, 2496.064
760.98, 2597.644
761.16, 2330.179
761.34, 2376.053
761.52, 2281.028
761.70, 2639.832
761.88, 2283.895
762.07, 2282.666
762.25, 2945.798
762.43, 2619.762
762.61, 2273.655
762.79, 2204.434
762.97, 2620.990
763.15, 2472.308
763.34, 2177.810
763.52, 2235.153
763.70, 2856.507
763.88, 2747.964
764.06, 2368.271
764.24, 2223.275
764.42, 2732.400
764.61, 2564.466
764.79, 2176.172
764.97, 2289.219
765.15, 2446.503
765.33, 2842.581
765.51, 2313.795
765.69, 2503.437
765.87, 2783.599
766.06, 2757.385
766.24, 2230.648
766.42, 2180.268
766.60, 2677.514
766.78, 2879.034
766.96, 2392.847
767.14, 2295.363
767.32, 2799.573
767.50, 2450.599
767.69, 2335.913
767.87, 2374.005
768.05, 2870.023
768.23, 2544.396
768.41, 2462.068
768.59, 2228.600
768.77, 2681.610
768.95, 2645.156
769.13, 2216.312
769.32, 2260.958
769.50, 2667.274
769.68, 2715.607
769.86, 2330.588
770.04, 2225.732
770.22, 2347.382
770.40, 2619.762
770.58, 2206.072
770.76, 2237.201
770.94, 2831.522
771.12, 2421.109
771.30, 2245.393
771.49, 2410.050
771.67, 2701.680
771.85, 2637.784
772.03, 2295.363
772.21, 2324.854
772.39, 2638.193
772.57, 2789.333
772.75, 2219.589
772.93, 2424.795
773.11, 2829.883
773.29, 2718.474
773.47, 2309.290
773.65, 2402.677
773.83, 2864.699
774.01, 2532.109
774.19, 2346.563
774.38, 2493.197
774.56, 2915.488
774.74, 2779.094
774.92, 2253.175
775.10, 2330.998
775.28, 2470.260
775.46, 2910.573
775.64, 2215.902
775.82, 2259.729
776.00, 2369.090
776.18, 2525.145
776.36, 2251.946
776.54, 2455.924
776.72, 2546.444
776.90, 2657.854
777.08, 2272.017
777.26, 2351.068
777.44, 2586.175
777.62, 2724.208
777.80, 2289.629
777.98, 2345.334
778.16, 2539.891
778.34, 2718.883
778.52, 2457.972
778.70, 2291.677
778.88, 2575.935
779.06, 2421.109
779.24, 2252.356
779.42, 2424.795
779.60, 2890.913
779.78, 2715.607
779.96, 2188.459
780.14, 2295.773
780.32, 2643.518
780.50, 2835.208
780.68, 2314.205
780.86, 2281.028
781.04, 2660.721
781.22, 2500.160
781.40, 2386.293
781.58, 2254.404
781.76, 2627.954
781.94, 2745.917
782.12, 2287.581
782.30, 2436.673
782.48, 2734.448
782.66, 2711.101
782.84, 2355.983
783.02, 2388.751
783.20, 2737.725
783.38, 2808.175
783.56, 2200.338
783.74, 2223.275
783.92, 2531.289
784.10, 2711.511
784.28, 2345.334
784.46, 2336.732
784.64, 2674.647
784.82, 2661.950
785.00, 2247.850
785.18, 2201.566
785.36, 2863.880
785.54, 2353.526
785.72, 2367.042
785.90, 2302.326
786.08, 2425.614
786.26, 2595.186
786.43, 2402.267
786.61, 2336.323
786.79, 2994.130
786.97, 2979.795
787.15, 2319.529
787.33, 2296.183
787.51, 2513.267
787.69, 2856.097
787.87, 2278.160
788.05, 2302.326
788.23, 3203.842
788.41, 2594.367
788.59, 2388.341
788.77, 2345.743
788.95, 2697.584
789.13, 2629.592
789.30, 2368.681
789.48, 2237.201
789.66, 2689.393
789.84, 2668.503
790.02, 2290.039
790.20, 2108.179
790.38, 2766.806
790.56, 2519.821
790.74, 2272.836
790.92, 2339.600
791.10, 2793.020
791.28, 2864.289
791.45, 2514.496
791.63, 2192.965
791.81, 3067.448
791.99, 2747.964
792.17, 2232.286
792.35, 2287.171
792.53, 2267.921
792.71, 2790.562
792.89, 2235.972
793.07, 2479.681
793.24, 2603.787
793.42, 2910.573
793.60, 2261.367
793.78, 2312.157
793.96, 2607.064
794.14, 2623.448
794.32, 2281.847
794.50, 2327.312
794.67, 2702.090
794.85, 2548.902
795.03, 2410.459
795.21, 2343.695
795.39, 2668.913
795.57, 2673.009
795.75, 2387.932
795.93, 2365.404
796.10, 3000.684
796.28, 2523.507
796.46, 2204.434
796.64, 2312.976
796.82, 2852.820
797.00, 2795.068
797.18, 2281.437
797.35, 2264.644
797.53, 2648.433
797.71, 2703.728
797.89, 2488.282
798.07, 2330.588
798.25, 2659.902
798.43, 2907.296
798.60, 2349.020
798.78, 2367.042
798.96, 3048.606
799.14, 2475.175
799.32, 2219.179
799.50, 2386.293
799.67, 2577.983
799.85, 2674.647
800.03, 2356.802
800.21, 2351.887
800.39, 2769.673
800.57, 2763.529
800.74, 2311.338
800.92, 2351.478
801.10, 2595.186
801.28, 2414.146
801.46, 2230.648
801.64, 2265.873
801.81, 2898.695
801.99, 2572.658
802.17, 2378.101
802.35, 2367.042
802.53, 2584.537
802.70, 2119.238
802.88, 2253.994
803.06, 2195.013
803.24, 2648.433
803.42, 2705.776
803.59, 2246.622
803.77, 2106.541
803.95, 3015.839
804.13, 2805.717
804.31, 2352.297
804.48, 2318.710
804.66, 2764.348
804.84, 2503.437
805.02, 2364.585
805.20, 2389.570
805.37, 2562.418
805.55, 2693.079
805.73, 2337.142
805.91, 2458.382
806.08, 2802.440
806.26, 2654.987
806.44, 2278.160
806.62, 2238.839
806.80, 2680.791
806.97, 2564.466
807.15, 2322.397
807.33, 2429.301
807.51, 2805.717
807.68, 2230.238
807.86, 2335.504
808.04, 2251.946
808.22, 2663.588
808.39, 3401.266
808.57, 2278.570
808.75, 2350.659
808.93, 2651.710
809.10, 2470.670
809.28, 2336.323
809.46, 2228.600
809.64, 2874.529
809.81, 2458.382
809.99, 2328.131
810.17, 2172.895
810.35, 3081.783
810.52, 2646.795
810.70, 2319.120
810.88, 2344.105
811.06, 2672.190
811.23, 2867.566
811.41, 2257.681
811.59, 2106.541
811.77, 2865.518
811.94, 2428.481
812.12, 2411.688
812.30, 2345.334
812.47, 2729.942
812.65, 2848.725
812.83, 2375.234
813.01, 2334.275
813.18, 2571.839
813.36, 2783.599
813.54, 2274.884
813.71, 2297.821
813.89, 3146.499
814.07, 2783.190
814.25, 2432.577
814.42, 2365.404
814.60, 3002.732
814.78, 2771.721
814.95, 2148.319
815.13, 2426.433
815.31, 2582.079
815.49, 2838.485
815.66, 2287.581
815.84, 2335.913
816.02, 2836.846
816.19, 2612.389
816.37, 2382.607
816.55, 2373.186
816.72, 2942.112
816.90, 2582.898
817.08, 2224.913
817.25, 2276.522
817.43, 2888.455
817.61, 2584.946
817.78, 2435.035
817.96, 2435.854
818.14, 2457.562
818.31, 2737.315
818.49, 2339.190
818.67, 2235.153
818.84, 2494.426
819.02, 2370.729
819.20, 2205.662
819.37, 2349.839
819.55, 2594.367
819.73, 2809.813
819.90, 2312.157
820.08, 2600.101
820.26, 2772.540
820.43, 2890.094
820.61, 2395.304
820.79, 2301.917
820.96, 2688.164
821.14, 2572.658
821.32, 2307.242
821.49, 2260.138
821.67, 2605.835
821.85, 2612.389
822.02, 2358.031
822.20, 2310.518
822.37, 2915.488
822.55, 2362.537
822.73, 2462.068
822.90, 2393.666
823.08, 2970.374
823.26, 2581.260
823.43, 2489.920
823.61, 2369.909
823.78, 2799.983
823.96, 2468.212
824.14, 2402.677
824.31, 2323.625
824.49, 3003.961
824.67, 3010.104
824.84, 2372.777
825.02, 2379.330
825.19, 2765.167
825.37, 3100.215
825.55, 2367.042
825.72, 2260.548
825.90, 2472.308
826.07, 2578.393
826.25, 2432.987
826.43, 2239.659
826.60, 2367.452
826.78, 2650.891
826.95, 2295.363
827.13, 2238.430
827.31, 2948.256
827.48, 2733.629
827.66, 2325.673
827.83, 2536.204
828.01, 2611.160
828.19, 2672.190
828.36, 2330.179
828.54, 2492.788
828.71, 2552.179
828.89, 2592.728
829.06, 2276.112
829.24, 2557.094
829.42, 2569.791
829.59, 2867.156
829.77, 2369.500
829.94, 2289.219
830.12, 2697.584
830.29, 2485.824
830.47, 2294.954
830.65, 2172.076
830.82, 2981.023
831.00, 2628.363
831.17, 2320.758
831.35, 2341.647
831.52, 2656.625
831.70, 2716.835
831.87, 2156.921
832.05, 2197.880
832.23, 2639.832
832.40, 2625.906
832.58, 2442.817
832.75, 2283.076
832.93, 2584.537
833.10, 2552.588
833.28, 2463.706
833.45, 2365.404
833.63, 2763.939
833.80, 2340.419
833.98, 2331.408
834.15, 2426.843
834.33, 2711.101
834.51, 2666.455
834.68, 2253.585
834.86, 2189.279
835.03, 2628.773
835.21, 2616.075
835.38, 2332.227
835.56, 2300.688
835.73, 2716.835
835.91, 2838.485
836.08, 2252.356
836.26, 2398.581
836.43, 2664.407
836.61, 2747.964
836.78, 2296.183
836.96, 2186.411
837.13, 3042.872
837.31, 2791.791
837.48, 2447.732
837.66, 2219.589
837.83, 2744.278
838.01, 2798.345
838.18, 2107.769
838.36, 2067.220
838.53, 2586.994
838.71, 2999.865
838.88, 2160.607
839.06, 2254.814
839.23, 2673.828
839.41, 2701.271
839.58, 2201.157
839.76, 2059.028
839.93, 2852.001
840.11, 2789.333
840.28, 2156.921
840.46, 2279.799
840.63, 2435.854
840.81, 2612.799
840.98, 2132.755
841.15, 2203.205
841.33, 2738.544
841.50, 2526.784
841.68, 2265.053
841.85, 2267.921
842.03, 2970.783
842.20, 2871.252
842.38, 2064.352
842.55, 2140.537
842.73, 2688.983
842.90, 2597.644
843.08, 2231.057
843.25, 2361.308
843.42, 2648.433
843.60, 2837.256
843.77, 2124.563
843.95, 2146.271
844.12, 2432.168
844.30, 2846.267
844.47, 2114.733
844.64, 2090.976
844.82, 3115.780
844.99, 2677.105
845.17, 2246.622
845.34, 2060.257
845.52, 2694.717
845.69, 2796.706
845.87, 2216.721
846.04, 2138.079
846.21, 2689.393
846.39, 2705.367
846.56, 2228.190
846.74, 2130.707
846.91, 2607.883
847.08, 2576.345
847.26, 2070.087
847.43, 2124.563
847.61, 2631.230
847.78, 2980.614
847.95, 2192.146
848.13, 2137.670
848.30, 2679.972
848.48, 2601.330
848.65, 2206.482
848.83, 2190.917
849.00, 2577.983
849.17, 2703.319
849.35, 2199.109
849.52, 2085.242
849.69, 2795.887
849.87, 2583.717
850.04, 2127.430
850.22, 2038.958
850.39, 2601.330
850.56, 2942.931
850.74, 2098.349
850.91, 2086.471
851.09, 2513.677
851.26, 2715.607
851.43, 2029.127
851.61, 2223.684
851.78, 2536.614
851.95, 2606.245
852.13, 2094.662
852.30, 2069.268
852.48, 3193.602
852.65, 2713.149
852.82, 2122.515
853.00, 2096.710
853.17, 2831.112
853.34, 2369.500
853.52, 2183.954
853.69, 2003.733
853.86, 2852.001
854.04, 2727.894
854.21, 2210.577
854.38, 2090.157
854.56, 2487.463
854.73, 2468.212
854.90, 2200.747
855.08, 2115.961
855.25, 2714.787
855.42, 2322.397
855.60, 2263.005
855.77, 2225.732
855.95, 2746.326
856.12, 2784.009
856.29, 2051.655
856.46, 2219.589
856.64, 2579.621
856.81, 2722.570
856.98, 2216.721
857.16, 2169.208
857.33, 2466.983
857.50, 2807.356
857.68, 2104.902
857.85, 2185.592
858.02, 2500.979
858.20, 2519.821
858.37, 2192.146
858.54, 2061.076
858.72, 3237.019
858.89, 2906.068
859.06, 2137.260
859.24, 2081.555
859.41, 2734.038
859.58, 2778.684
859.75, 2152.006
859.93, 2174.533
860.10, 2747.964
860.27, 2801.212
860.45, 2153.644
860.62, 2174.124
860.79, 2731.581
860.97, 2782.780
861.14, 2178.220
861.31, 2179.448
861.48, 2719.702
861.66, 2448.961
861.83, 2092.205
862.00, 2082.375
862.17, 2488.282
862.35, 2777.865
862.52, 2114.733
862.69, 2226.961
862.87, 2751.241
863.04, 2776.636
863.21, 2054.932
863.38, 2215.902
863.56, 2748.374
863.73, 2587.813
863.90, 2119.648
864.07, 2309.699
864.25, 2997.407
864.42, 2521.869
864.59, 2055.341
864.76, 2108.179
864.94, 2855.688
865.11, 2512.858
865.28, 2057.799
865.45, 2145.862
865.63, 2674.647
865.80, 2477.633
865.97, 2106.950
866.14, 2031.175
866.32, 2735.677
866.49, 2539.481
866.66, 2263.005
866.83, 2106.950
867.01, 2566.105
867.18, 2557.094
867.35, 1997.179
867.52, 2046.740
867.70, 2899.105
867.87, 3056.389
868.04, 2066.400
868.21, 2121.286
868.38, 2729.123
868.56, 2900.743
868.73, 2106.131
868.90, 2083.194
869.07, 2585.765
869.24, 2718.474
869.42, 2135.212
869.59, 2317.481
869.76, 2958.086
869.93, 2539.481
870.11, 2242.116
870.28, 2144.633
870.45, 2947.437
870.62, 2703.728
870.79, 2156.511
870.97, 2260.958
871.14, 2846.677
871.31, 2787.285
871.48, 2195.832
871.65, 2366.223
871.82, 3024.031
872.00, 2747.964
872.17, 2149.138
872.34, 2199.109
872.51, 2615.666
872.68, 2731.990
872.86, 2325.264
873.03, 2151.186
873.20, 2668.913
873.37, 3140.765
873.54, 2088.109
873.71, 2123.744
873.89, 3003.551
874.06, 2799.573
874.23, 2133.983
874.40, 2198.290
874.57, 3012.562
874.74, 2703.319
874.92, 2217.131
875.09, 2068.448
875.26, 2932.282
875.43, 2769.673
875.60, 2129.888
875.77, 2212.216
875.95, 2526.784
876.12, 2738.544
876.29, 2064.352
876.46, 2279.799
876.63, 2648.024
876.80, 2788.514
876.97, 2341.647
877.15, 2085.242
877.32, 2908.116
877.49, 2614.437
877.66, 2473.127
877.83, 2247.850
878.00, 2528.832
878.17, 3115.370
878.34, 2156.511
878.52, 2222.046
878.69, 2703.728
878.86, 2428.481
879.03, 2078.688
879.20, 2104.493
879.37, 2683.658
879.54, 3137.079
879.71, 2059.028
879.89, 2181.087
880.06, 2994.540
880.23, 2622.219
880.40, 2206.072
880.57, 2272.836
880.74, 2582.079
880.91, 2964.640
881.08, 2248.670
881.25, 2295.363
881.42, 2872.891
881.60, 2595.596
881.77, 2174.533
881.94, 2093.024
882.11, 2578.393
882.28, 2662.769
882.45, 2131.526
882.62, 2232.696
882.79, 2979.385
882.96, 2668.913
883.13, 2079.098
883.30, 2341.238
883.48, 2802.440
883.65, 2634.507
883.82, 2061.485
883.99, 2100.397
884.16, 2949.894
884.33, 2586.994
884.50, 2172.485
884.67, 2283.076
884.84, 2668.094
885.01, 2612.389
885.18, 2215.902
885.35, 2170.847
885.52, 2342.467
885.69, 2679.153
885.87, 2138.899
886.04, 2197.880
886.21, 2730.352
886.38, 2872.481
886.55, 2161.836
886.72, 2170.028
886.89, 2854.868
887.06, 2688.573
887.23, 2199.518
887.40, 2230.238
887.57, 2712.330
887.74, 2761.071
887.91, 1997.998
888.08, 2094.662
888.25, 2781.961
888.42, 3104.721
888.59, 2214.264
888.76, 2128.249
888.93, 2681.201
889.10, 2496.884
889.27, 2229.009
889.44, 2208.939
889.61, 2543.987
889.78, 2643.518
889.95, 2282.256
890.12, 2319.529
890.29, 2858.964
890.46, 2630.001
890.63, 2086.880
890.80, 2139.718
890.97, 2576.345
891.15, 2797.116
891.32, 2147.500
891.49, 2258.910
891.66, 3023.211
891.83, 2682.839
892.00, 2218.769
892.17, 2299.050
892.34, 2792.201
892.51, 2861.422
892.68, 2221.227
892.84, 2121.286
893.01, 2473.537
893.18, 2756.156
893.35, 2213.035
893.52, 2145.042
893.69, 2788.105
##END=
##TITLE= SPECTRASUITE EXPORTED SPECTRA: REFERENCE SPECTRUM
##JCAMP-DX= 5 $$EXPORTED SPECTRASUITE FILE
##DATA TYPE= UV/VIS SPECTRUM
##SAMPLE DESCRIPTION= REFERENCE SPECTRUM
##BLOCK_ID=3
##ORIGIN= OCEANOPTICS EXPORT
##OWNER= hugo
##SPECTROMETER/DATA SYSTEM= OCEANOPTICS EXPORT
##DATA PROCESSING= DARK:Yes REFERENCE:Yes
##DATA PROCESSING= BOXCAR:0 ELECTRICAL DARK: false
##.ACQUISITION TIME= 400
##.AVERAGES= 5
##XUNITS= NANOMETERS
##YUNITS= Transmission (%)
##XFACTOR= 1.0
##YFACTOR= 1.0
##FIRSTX= 176.36
##LASTX= 893.69
##FIRSTY= 32822.795
##MINY= 1555.227
##MAXY= 32822.795
##NPOINTS= 3648
##XYPOINTS= (XY..XY)
176.36, 32822.795
176.58, 32822.795
176.80, 32822.795
177.02, 1606.017
177.24, 1555.227
177.47, 2494.426
177.69, 2473.127
177.91, 2913.031
178.13, 2563.647
178.35, 2351.068
178.57, 2306.422
178.79, 2527.603
179.01, 2587.813
179.23, 2224.913
179.46, 2371.548
179.68, 2520.230
179.90, 2469.441
180.12, 2209.349
180.34, 2286.352
180.56, 2507.533
180.78, 2834.389
181.00, 2267.511
181.22, 2430.939
181.44, 2572.658
181.66, 2689.802
181.89, 2387.112
182.11, 2228.600
182.33, 2618.533
182.55, 3069.905
182.77, 2455.105
182.99, 2546.854
183.21, 2299.869
183.43, 2607.064
183.65, 2270.788
183.87, 2169.618
184.09, 2863.470
184.31, 2763.119
184.53, 2290.448
184.76, 2257.271
184.98, 2557.094
185.20, 2841.352
185.42, 2454.695
185.64, 2308.470
185.86, 2948.665
186.08, 3187.868
186.30, 2246.622
186.52, 2242.116
186.74, 2759.024
186.96, 2693.488
187.18, 2345.743
187.40, 2263.005
187.62, 2871.252
187.84, 2867.156
188.06, 2414.965
188.28, 2343.695
188.51, 2840.942
188.73, 2831.112
188.95, 2349.020
189.17, 2441.588
189.39, 2735.267
189.61, 2750.422
189.83, 2421.518
190.05, 2383.016
190.27, 2939.245
190.49, 2727.075
190.71, 2187.640
190.93, 2273.245
191.15, 2397.762
191.37, 2788.514
191.59, 2358.441
191.81, 2416.194
192.03, 2678.743
192.25, 2763.529
192.47, 2269.969
192.69, 2319.939
192.91, 2756.566
193.13, 2702.500
193.35, 2187.231
193.57, 2446.503
193.79, 2550.540
194.01, 2906.068
194.23, 2356.393
194.45, 2253.585
194.67, 2853.640
194.89, 2504.666
195.11, 2218.360
195.33, 2150.777
195.55, 2595.186
195.77, 2715.607
195.99, 2379.740
196.21, 2260.548
196.43, 2760.662
196.65, 2576.345
196.87, 2468.622
197.09, 2326.492
197.31, 2897.057
197.53, 2915.488
197.75, 2398.991
197.97, 2367.861
198.19, 2862.241
198.41, 3063.761
198.63, 2292.496
198.85, 2328.950
199.07, 2854.049
199.29, 2498.522
199.51, 2300.688
199.73, 2430.529
199.95, 2557.913
200.17, 2790.153
200.39, 2389.980
200.61, 2388.341
200.83, 2529.651
201.05, 2784.418
201.27, 2269.149
201.49, 2334.275
201.71, 2908.935
201.93, 2861.012
202.15, 2288.810
202.37, 2298.231
202.59, 2754.518
202.81, 2619.762
203.03, 2399.400
203.25, 2344.924
203.47, 2646.385
203.69, 2662.359
203.91, 2403.906
204.13, 2232.286
204.35, 2517.773
204.57, 2891.732
204.79, 2242.935
205.01, 2277.751
205.23, 2883.950
205.45, 2663.179
205.67, 2161.836
205.89, 2315.843
206.10, 2905.248
206.32, 2454.286
206.54, 2211.397
206.76, 2317.891
206.98, 2680.791
207.20, 2583.308
207.42, 2356.393
207.64, 2193.784
207.86, 2567.334
208.08, 3124.791
208.30, 2266.692
208.52, 2253.994
208.74, 2842.990
208.96, 2860.193
209.18, 2164.293
209.40, 2487.053
209.62, 2593.548
209.83, 2673.828
210.05, 2232.696
210.27, 2281.437
210.49, 2624.267
210.71, 2526.784
210.93, 2361.718
211.15, 2392.437
211.37, 2509.581
211.59, 2571.020
211.81, 2222.456
212.03, 2252.766
212.25, 2739.363
212.47, 2597.644
212.68, 2270.788
212.90, 2359.670
213.12, 2645.566
213.34, 2878.625
213.56, 2199.518
213.78, 2267.921
214.00, 2955.219
214.22, 2452.647
214.44, 2343.695
214.66, 2309.290
214.88, 2620.171
215.09, 2686.116
215.31, 2068.858
215.53, 2312.566
215.75, 2763.939
215.97, 2481.729
216.19, 2415.784
216.41, 2433.396
216.63, 2572.249
216.85, 2937.197
217.06, 2383.836
217.28, 2295.773
217.50, 2499.751
217.72, 2832.750
217.94, 2380.559
218.16, 2248.260
218.38, 2489.920
218.60, 2522.278
218.82, 2308.061
219.03, 2337.142
219.25, 2704.548
219.47, 2721.341
219.69, 2313.795
219.91, 2421.928
220.13, 2985.529
220.35, 2695.127
220.57, 2337.552
220.78, 2466.164
221.00, 2731.581
221.22, 2823.739
221.44, 2319.529
221.66, 2229.828
221.88, 2952.352
222.10, 2417.422
222.31, 2193.784
222.53, 2209.758
222.75, 2511.629
222.97, 2550.950
223.19, 2306.422
223.41, 2343.286
223.63, 2536.204
223.84, 3015.429
224.06, 2319.120
224.28, 2318.710
224.50, 2856.097
224.72, 2661.131
224.94, 2258.090
225.16, 2338.780
225.37, 3056.389
225.59, 2680.382
225.81, 2300.278
226.03, 2375.234
226.25, 2912.212
226.47, 2559.961
226.68, 2333.456
226.90, 2340.828
227.12, 2542.758
227.34, 2841.352
227.56, 2223.275
227.78, 2275.293
227.99, 2651.300
228.21, 2664.817
228.43, 2420.699
228.65, 2335.913
228.87, 2732.400
229.09, 2582.489
229.30, 2383.426
229.52, 2221.636
229.74, 2731.171
229.96, 2953.990
230.18, 2347.791
230.39, 2312.157
230.61, 2699.223
230.83, 2600.920
231.05, 2247.441
231.27, 2380.559
231.49, 2573.887
231.70, 2759.433
231.92, 2282.256
232.14, 2270.378
232.36, 2545.625
232.58, 2832.750
232.79, 2202.386
233.01, 2268.740
233.23, 2687.754
233.45, 2561.599
233.67, 2256.862
233.88, 2331.408
234.10, 2939.245
234.32, 2870.433
234.54, 2289.219
234.75, 2292.906
234.97, 2754.928
235.19, 2919.994
235.41, 2333.456
235.63, 2310.109
235.84, 2957.676
236.06, 2454.286
236.28, 2314.205
236.50, 2214.673
236.72, 2461.658
236.93, 2580.850
237.15, 2281.028
237.37, 2225.323
237.59, 2842.581
237.80, 2507.943
238.02, 2278.160
238.24, 2266.692
238.46, 2786.057
238.67, 2949.485
238.89, 2381.788
239.11, 2363.766
239.33, 2551.359
239.55, 2569.382
239.76, 2434.625
239.98, 2237.611
240.20, 2671.370
240.42, 2601.330
240.63, 2337.142
240.85, 2296.183
241.07, 2757.795
241.29, 2841.761
241.50, 2233.515
241.72, 2366.633
241.94, 2607.064
242.16, 3029.765
242.37, 2296.592
242.59, 2303.965
242.81, 2391.618
243.03, 2777.455
243.24, 2273.655
243.46, 2421.928
243.68, 2820.053
243.90, 2476.813
244.11, 2225.323
244.33, 2249.079
244.55, 2603.787
244.76, 2605.835
244.98, 2414.555
245.20, 2240.068
245.42, 2741.821
245.63, 2511.629
245.85, 2207.710
246.07, 2283.485
246.29, 2738.544
246.50, 2742.640
246.72, 2384.655
246.94, 2435.444
247.15, 2555.455
247.37, 2919.584
247.59, 2254.404
247.81, 2416.603
248.02, 2623.038
248.24, 2807.356
248.46, 2337.552
248.67, 2266.692
248.89, 2779.913
249.11, 2780.732
249.33, 2393.256
249.54, 2275.293
249.76, 2630.001
249.98, 2446.503
250.19, 2272.836
250.41, 2223.684
250.63, 2757.385
250.84, 2546.444
251.06, 2304.374
251.28, 2362.537
251.50, 2442.408
251.71, 2670.142
251.93, 2290.039
252.15, 2250.718
252.36, 2586.994
252.58, 3052.702
252.80, 2344.515
253.01, 2510.810
253.23, 2775.407
253.45, 2600.920
253.66, 2327.721
253.88, 2346.563
254.10, 2538.252
254.31, 2803.669
254.53, 2156.921
254.75, 2349.430
254.97, 2953.581
255.18, 2686.525
255.40, 2345.743
255.62, 2301.098
255.83, 2516.134
256.05, 2762.300
256.27, 2299.459
256.48, 2329.769
256.70, 2715.197
256.92, 2738.134
257.13, 2457.972
257.35, 2217.950
257.57, 2901.562
257.78, 2695.536
258.00, 2475.585
258.21, 2444.456
258.43, 2845.448
258.65, 2721.750
258.86, 2321.577
259.08, 2351.887
259.30, 2855.688
259.51, 2901.153
259.73, 2176.991
259.95, 2386.703
260.16, 2798.344
260.38, 2958.086
260.60, 2202.795
260.81, 2302.736
261.03, 2733.219
261.25, 2487.053
261.46, 2355.983
261.68, 2299.869
261.89, 2567.334
262.11, 2586.585
262.33, 2340.419
262.54, 2116.780
262.76, 2761.481
262.98, 2726.666
263.19, 2248.260
263.41, 2299.459
263.62, 2645.976
263.84, 2721.341
264.06, 2315.433
264.27, 2359.670
264.49, 2661.950
264.71, 2695.127
264.92, 2414.146
265.14, 2459.610
265.35, 2742.230
265.57, 2767.215
265.79, 2354.345
266.00, 2367.452
266.22, 2944.569
266.43, 2514.906
266.65, 2419.061
266.87, 2199.109
267.08, 2408.002
267.30, 2471.489
267.51, 2466.164
267.73, 2367.042
267.95, 2992.492
268.16, 2545.625
268.38, 2372.777
268.59, 2453.057
268.81, 2777.865
269.03, 2839.713
269.24, 2330.588
269.46, 2419.061
269.67, 2661.131
269.89, 2648.433
270.11, 2423.976
270.32, 2429.710
270.54, 2650.481
270.75, 3126.839
270.97, 2291.267
271.19, 2369.500
271.40, 2677.924
271.62, 2512.038
271.83, 2265.463
272.05, 2253.585
272.26, 2781.961
272.48, 2817.186
272.70, 2489.511
272.91, 2449.371
273.13, 2830.293
273.34, 2863.060
273.56, 2464.526
273.77, 2495.245
273.99, 3079.735
274.21, 3137.488
274.42, 2635.736
274.64, 2491.968
274.85, 2743.869
275.07, 2629.182
275.28, 2490.330
275.50, 2591.090
275.71, 2594.776
275.93, 2596.005
276.15, 2611.979
276.36, 2532.109
276.58, 2932.691
276.79, 2721.750
277.01, 2598.053
277.22, 2592.319
277.44, 3271.835
277.65, 2953.990
277.87, 2588.632
278.08, 2502.208
278.30, 3265.281
278.52, 2836.027
278.73, 2621.810
278.95, 2459.610
279.16, 2662.359
279.38, 2844.219
279.59, 2702.090
279.81, 2481.729
280.02, 3037.138
280.24, 3121.924
280.45, 2595.186
280.67, 2448.961
280.88, 2811.452
281.10, 3008.466
281.31, 2684.477
281.53, 2615.256
281.74, 2923.271
281.96, 2778.684
282.17, 2522.688
282.39, 2589.042
282.60, 2688.164
282.82, 2842.990
283.04, 2612.389
283.25, 2605.426
283.47, 2889.274
283.68, 2900.333
283.90, 2691.031
284.11, 2585.765
284.33, 2696.356
284.54, 2819.643
284.76, 2568.972
284.97, 2768.854
285.19, 2847.086
285.40, 3027.307
285.62, 2795.477
285.83, 2611.160
286.05, 2923.680
286.26, 2858.964
286.48, 2665.636
286.69, 2742.640
286.91, 2706.596
287.12, 3254.632
287.33, 2586.994
287.55, 2588.632
287.76, 3067.448
287.98, 3040.414
288.19, 2924.909
288.41, 2512.038
288.62, 2961.772
288.84, 3015.020
289.05, 2543.168
289.27, 2579.621
289.48, 3130.525
289.70, 2772.130
289.91, 2795.068
290.13, 2691.441
290.34, 3101.034
290.56, 3024.850
290.77, 2754.518
290.99, 2711.511
291.20, 2876.577
291.41, 2867.156
291.63, 2773.769
291.84, 2919.584
292.06, 3107.178
292.27, 2984.300
292.49, 2720.522
292.70, 2970.783
292.92, 3146.499
293.13, 3201.794
293.35, 2848.315
293.56, 2831.931
293.77, 2938.016
293.99, 3304.602
294.20, 2769.263
294.42, 2850.772
294.63, 3182.134
294.85, 3337.370
295.06, 2796.706
295.28, 2867.975
295.49, 2839.304
295.70, 3404.543
295.92, 2891.322
296.13, 3033.042
296.35, 3449.599
296.56, 3181.724
296.78, 2844.219
296.99, 2921.223
297.20, 3160.016
297.42, 3386.931
297.63, 3019.525
297.85, 2982.662
298.06, 3139.536
298.28, 3316.071
298.49, 2911.392
298.70, 3001.503
298.92, 3497.111
299.13, 3533.156
299.35, 3156.739
299.56, 3035.499
299.77, 3076.868
299.99, 3207.119
300.20, 3122.333
300.42, 2992.902
300.63, 3274.702
300.85, 3567.152
301.06, 3242.344
301.27, 3125.200
301.49, 3324.672
301.70, 3465.163
301.92, 3194.831
302.13, 3148.547
302.34, 3384.883
302.56, 3593.776
302.77, 3181.724
302.99, 3204.252
303.20, 3498.750
303.41, 3486.462
303.63, 3252.174
303.84, 3150.186
304.05, 3285.351
304.27, 3497.931
304.48, 3308.289
304.70, 3187.868
304.91, 3638.012
305.12, 3597.871
305.34, 3191.555
305.55, 3258.318
305.77, 3368.909
305.98, 3709.281
306.19, 3321.396
306.41, 3456.562
306.62, 3495.883
306.83, 3785.056
307.05, 3384.064
307.26, 3356.621
307.47, 3891.550
307.69, 3941.930
307.90, 3463.934
308.12, 3451.237
308.33, 3762.119
308.54, 4073.819
308.76, 3283.713
308.97, 3561.008
309.18, 3864.107
309.40, 3653.576
309.61, 3629.820
309.82, 3418.879
310.04, 3787.513
310.25, 4057.436
310.46, 3514.314
310.68, 3619.580
310.89, 3904.248
311.11, 3667.502
311.32, 3640.060
311.53, 3639.240
311.75, 4013.609
311.96, 4016.886
312.17, 3757.203
312.39, 3761.709
312.60, 3930.052
312.81, 4129.115
313.03, 3777.683
313.24, 3701.499
313.45, 3921.860
313.67, 4121.742
313.88, 3791.200
314.09, 3806.355
314.31, 4011.561
314.52, 4009.513
314.73, 3778.912
314.95, 3812.499
315.16, 4309.336
315.37, 4232.742
315.58, 3806.355
315.80, 3680.200
316.01, 3919.812
316.22, 4083.240
316.44, 3887.045
316.65, 3974.288
316.86, 4089.794
317.08, 4215.539
317.29, 3936.196
317.50, 3744.916
317.72, 3992.720
317.93, 4339.236
318.14, 3885.406
318.35, 4081.192
318.57, 4102.491
318.78, 4357.258
318.99, 4014.019
319.21, 3865.746
319.42, 4487.919
319.63, 4116.008
319.85, 3889.093
320.06, 4099.214
320.27, 4222.502
320.48, 4017.296
320.70, 4041.871
320.91, 4139.354
321.12, 4418.697
321.34, 4406.410
321.55, 4172.532
321.76, 4159.834
321.97, 4570.657
322.19, 4396.579
322.40, 4321.214
322.61, 4322.033
322.83, 4481.365
323.04, 4522.734
323.25, 4398.218
323.46, 4428.937
323.68, 4724.254
323.89, 4523.144
324.10, 4419.926
324.31, 4688.620
324.53, 4815.594
324.74, 5008.103
324.95, 4689.029
325.16, 4835.254
325.38, 5087.154
325.59, 5155.147
325.80, 4781.597
326.01, 4708.280
326.23, 5316.936
326.44, 5110.092
326.65, 4793.066
326.86, 4886.044
327.08, 5001.549
327.29, 5057.254
327.50, 4767.671
327.71, 4896.693
327.93, 4660.358
328.14, 4931.099
328.35, 4770.948
328.56, 4930.280
328.78, 5073.638
328.99, 5467.667
329.20, 4858.601
329.41, 4955.675
329.63, 5257.545
329.84, 5112.549
330.05, 4971.239
330.26, 4896.693
330.48, 4869.660
330.69, 5081.420
330.90, 5019.981
331.11, 4833.616
331.32, 5136.715
331.54, 5345.608
331.75, 4999.911
331.96, 5151.461
332.17, 5615.121
332.39, 5110.501
332.60, 5033.088
332.81, 4974.516
333.02, 5195.697
333.23, 5167.435
333.45, 5142.040
333.66, 5244.848
333.87, 5470.944
334.08, 5392.711
334.29, 5269.833
334.51, 5371.822
334.72, 5615.940
334.93, 5583.582
335.14, 5388.206
335.35, 5357.077
335.57, 5511.494
335.78, 5630.276
335.99, 5422.202
336.20, 5243.210
336.41, 5560.645
336.63, 5974.334
336.84, 5434.080
337.05, 5740.047
337.26, 6058.301
337.47, 5728.169
337.69, 5804.763
337.90, 5658.947
338.11, 6032.497
338.32, 6316.755
338.53, 5722.434
338.74, 5755.202
338.96, 6277.843
339.17, 6496.157
339.38, 6326.585
339.59, 6081.648
339.80, 6334.367
340.01, 6499.434
340.23, 6255.725
340.44, 5989.899
340.65, 6501.482
340.86, 6409.733
341.07, 6167.253
341.28, 6266.375
341.50, 6630.504
341.71, 6478.135
341.92, 6434.308
342.13, 6447.825
342.34, 6640.743
342.55, 6521.142
342.77, 6448.234
342.98, 6458.474
343.19, 6856.190
343.40, 6904.112
343.61, 6641.972
343.82, 6755.020
344.03, 6741.504
344.25, 7151.916
344.46, 6660.814
344.67, 6924.592
344.88, 6988.898
345.09, 7180.998
345.30, 6892.234
345.51, 7031.086
345.73, 7277.662
345.94, 7185.503
346.15, 7196.972
346.36, 7071.636
346.57, 7305.514
346.78, 7150.688
346.99, 7159.699
347.21, 7299.370
347.42, 7243.665
347.63, 7298.141
347.84, 7242.437
348.05, 7167.481
348.26, 7385.794
348.47, 7286.263
348.68, 7159.699
348.89, 7353.437
349.11, 7546.765
349.32, 7619.263
349.53, 7086.791
349.74, 7434.536
349.95, 7301.418
350.16, 7692.171
350.37, 7289.950
350.58, 7535.706
350.79, 7761.392
351.01, 7796.207
351.22, 7593.459
351.43, 7467.304
351.64, 7882.632
351.85, 7843.720
352.06, 7551.680
352.27, 7611.071
352.48, 7812.591
352.69, 8102.174
352.90, 7665.547
353.12, 7759.344
353.33, 8003.462
353.54, 7862.562
353.75, 7857.646
353.96, 7819.554
354.17, 8051.794
354.38, 8322.126
354.59, 7927.687
354.80, 7984.621
355.01, 8122.244
355.22, 8252.904
355.43, 8102.584
355.64, 8290.587
355.86, 8468.760
356.07, 8573.207
356.28, 8331.956
356.49, 8016.978
356.70, 8484.325
356.91, 8875.897
357.12, 8560.509
357.33, 8367.591
357.54, 8778.004
357.75, 8767.764
357.96, 8396.262
358.17, 8507.672
358.38, 8794.387
358.59, 8864.428
358.80, 8691.579
359.02, 8653.078
359.23, 8818.553
359.44, 9140.085
359.65, 8744.417
359.86, 9124.520
360.07, 9118.786
360.28, 8886.546
360.49, 9099.944
360.70, 9168.347
360.91, 9278.937
361.12, 9336.280
361.33, 9235.929
361.54, 9291.225
361.75, 9678.291
361.96, 9591.866
362.17, 9627.501
362.38, 9525.512
362.59, 10137.036
362.80, 9813.457
363.01, 9561.147
363.22, 9611.527
363.43, 9522.645
363.64, 10092.800
363.85, 9540.258
364.06, 9863.427
364.27, 10049.792
364.48, 10227.146
364.69, 9803.626
364.90, 9772.497
365.11, 10156.696
365.33, 10275.478
365.54, 9941.660
365.75, 10240.253
365.96, 10309.065
366.17, 10294.729
366.38, 10080.921
366.59, 10137.445
366.80, 10062.080
367.01, 10875.124
367.22, 9728.671
367.43, 10176.357
367.64, 10476.999
367.85, 10523.692
368.06, 10042.010
368.27, 10157.925
368.48, 10805.902
368.69, 10150.962
368.90, 10350.844
369.11, 10294.729
369.32, 10796.891
369.53, 10454.471
369.74, 10256.637
369.94, 10275.069
370.15, 10542.943
370.36, 10912.806
370.57, 10161.611
370.78, 10446.279
370.99, 10686.301
371.20, 10899.699
371.41, 10518.368
371.62, 10624.043
371.83, 10713.334
372.04, 10649.028
372.25, 10494.201
372.46, 10724.803
372.67, 10728.489
372.88, 11122.518
373.09, 10486.010
373.30, 10627.729
373.51, 10708.829
373.72, 11076.644
373.93, 10907.482
374.14, 10663.773
374.35, 11047.563
374.56, 11362.540
374.77, 11059.441
374.98, 10769.448
375.19, 11251.950
375.40, 11326.906
375.61, 11014.795
375.82, 11259.323
376.03, 11183.957
376.23, 11298.644
376.44, 11139.721
376.65, 10967.692
376.86, 11113.917
377.07, 11512.452
377.28, 11346.976
377.49, 11161.020
377.70, 11610.754
377.91, 11385.887
378.12, 11210.991
378.33, 11289.223
378.54, 11252.360
378.75, 11746.330
378.96, 11209.352
379.17, 11333.459
379.37, 11702.093
379.58, 11511.223
379.79, 11333.459
380.00, 11367.455
380.21, 11619.765
380.42, 11777.459
380.63, 11621.403
380.84, 11654.171
381.05, 11938.429
381.26, 12005.193
381.47, 11586.998
381.68, 11966.281
381.89, 12113.735
382.09, 11681.204
382.30, 11981.846
382.51, 11811.455
382.72, 12251.768
382.93, 11956.861
383.14, 11686.529
383.35, 12187.052
383.56, 12115.374
383.77, 12357.443
383.98, 12019.119
384.18, 12239.890
384.39, 12435.266
384.60, 12464.347
384.81, 11965.872
385.02, 11864.702
385.23, 12164.115
385.44, 12516.366
385.65, 12344.746
385.86, 12012.156
386.06, 12726.078
386.27, 12663.000
386.48, 12330.820
386.69, 12235.794
386.90, 12224.325
387.11, 12747.377
387.32, 12338.193
387.53, 12503.668
387.73, 12625.727
387.94, 12913.262
388.15, 12560.192
388.36, 12430.761
388.57, 13010.336
388.78, 12891.144
388.99, 12718.705
389.20, 12228.831
389.40, 13350.299
389.61, 12804.310
389.82, 12538.893
390.03, 12620.812
390.24, 13060.716
390.45, 12658.904
390.66, 12854.690
390.86, 12531.521
391.07, 12676.517
391.28, 12916.129
391.49, 12661.772
391.70, 12794.480
391.91, 12868.207
392.12, 13327.771
392.32, 12634.738
392.53, 13057.030
392.74, 13235.612
392.95, 13316.712
393.16, 12880.904
393.37, 12820.694
393.57, 13067.679
393.78, 13176.221
393.99, 13414.195
394.20, 13173.354
394.41, 13578.033
394.62, 13343.745
394.82, 13514.546
395.03, 13354.804
395.24, 13605.066
395.45, 13275.753
395.66, 13296.642
395.87, 13261.826
396.07, 13480.959
396.28, 13494.476
396.49, 13966.328
396.70, 13353.166
396.91, 13539.531
397.11, 13856.557
397.32, 13084.063
397.53, 13501.029
397.74, 13785.287
397.95, 13639.062
398.16, 13240.118
398.36, 13782.010
398.57, 13863.520
398.78, 13746.785
398.99, 13575.166
399.20, 13523.557
399.40, 13082.834
399.61, 14085.519
399.82, 13508.402
400.03, 13569.431
400.24, 13876.217
400.44, 13634.966
400.65, 13578.033
400.86, 13757.025
401.07, 13958.545
401.27, 14085.519
401.48, 13680.022
401.69, 13449.011
401.90, 14426.301
402.11, 13943.800
402.31, 13972.472
402.52, 13940.933
402.73, 13883.590
402.94, 13894.649
403.15, 13818.464
403.35, 13724.667
403.56, 14429.169
403.77, 14088.796
403.98, 13989.675
404.18, 13876.627
404.39, 14367.320
404.60, 14254.272
404.81, 14229.287
405.01, 14228.468
405.22, 14565.154
405.43, 14714.655
405.64, 14677.792
405.85, 14430.397
406.05, 14856.375
406.26, 14805.585
406.47, 14713.017
406.68, 14705.235
406.88, 15605.931
407.09, 14843.678
407.30, 14357.899
407.51, 14311.206
407.71, 15559.238
407.92, 14262.464
408.13, 14530.748
408.34, 14783.467
408.54, 14748.652
408.75, 14625.364
408.96, 15569.887
409.16, 15093.530
409.37, 15156.607
409.58, 15313.482
409.79, 15331.504
409.99, 15238.116
410.20, 15613.304
410.41, 14832.209
410.62, 14668.371
410.82, 15138.995
411.03, 15728.400
411.24, 15373.282
411.45, 15136.127
411.65, 15065.268
411.86, 15317.168
412.07, 15484.282
412.27, 15353.212
412.48, 15310.205
412.69, 15311.843
412.90, 16061.809
413.10, 15159.065
413.31, 15336.419
413.52, 15528.928
413.72, 15144.319
413.93, 15424.891
414.14, 15017.345
414.35, 15512.544
414.55, 15820.559
414.76, 15343.791
414.97, 15508.858
415.17, 15527.699
415.38, 15600.607
415.59, 15161.113
415.79, 15533.024
416.00, 16035.186
416.21, 16064.676
416.41, 15495.751
416.62, 14927.644
416.83, 16210.082
417.04, 16056.075
417.24, 15571.935
417.45, 15404.821
417.66, 15784.105
417.86, 15918.861
418.07, 15358.537
418.28, 15748.061
418.48, 16220.732
418.69, 15889.780
418.90, 15971.289
419.10, 15765.263
419.31, 15995.046
419.52, 16047.064
419.72, 15737.411
419.93, 15906.164
420.14, 16403.820
420.34, 16154.377
420.55, 15557.599
420.76, 16199.023
420.96, 15828.750
421.17, 15992.588
421.38, 15777.551
421.58, 15990.130
421.79, 16325.178
422.00, 16263.329
422.20, 15632.145
422.41, 15771.817
422.62, 15931.149
422.82, 16212.949
423.03, 15753.795
423.24, 16138.403
423.44, 15718.979
423.65, 15724.714
423.85, 15850.049
424.06, 15929.920
424.27, 16381.702
424.47, 16200.252
424.68, 16343.200
424.89, 16337.876
425.09, 16232.610
425.30, 16013.477
425.51, 15899.201
425.71, 15886.094
425.92, 16045.426
426.12, 16794.573
426.33, 15945.485
426.54, 15535.072
426.74, 16148.643
426.95, 16378.835
427.16, 15473.223
427.36, 16867.480
427.57, 16180.182
427.77, 16842.495
427.98, 16206.805
428.19, 16643.023
428.39, 16379.654
428.60, 16655.720
428.81, 16588.137
429.01, 15896.333
429.22, 16520.145
429.42, 16259.643
429.63, 16474.270
429.84, 16516.458
430.04, 16932.606
430.25, 16960.048
430.45, 16143.728
430.66, 17080.879
430.87, 16201.481
431.07, 16386.208
431.28, 16643.842
431.48, 16543.492
431.69, 16900.657
431.90, 16417.746
432.10, 17389.712
432.31, 16595.100
432.51, 17062.856
432.72, 17090.299
432.92, 17127.982
433.13, 16720.436
433.34, 16926.052
433.54, 17246.354
433.75, 16975.613
433.95, 16758.938
434.16, 17579.764
434.37, 16910.897
434.57, 17102.177
434.78, 17142.318
434.98, 17456.886
435.19, 17236.524
435.39, 17821.834
435.60, 17213.587
435.81, 17778.826
436.01, 17384.388
436.22, 16810.547
436.42, 17404.458
436.63, 18334.235
436.83, 18195.793
437.04, 17814.051
437.24, 17651.852
437.45, 17947.989
437.66, 17577.306
437.86, 17185.735
438.07, 17968.059
438.27, 17815.690
438.48, 17722.302
438.68, 17633.011
438.89, 17984.033
439.09, 18048.339
439.30, 18192.516
439.50, 17078.831
439.71, 18013.524
439.92, 17840.675
440.12, 17855.011
440.33, 17334.827
440.53, 18203.165
440.74, 17964.372
440.94, 17825.930
441.15, 17594.509
441.35, 17710.424
441.56, 17899.247
441.76, 18011.066
441.97, 17661.273
442.17, 18180.228
442.38, 17518.325
442.58, 17850.096
442.79, 17136.583
443.00, 17499.893
443.20, 18110.188
443.41, 17335.236
443.61, 17181.229
443.82, 17538.395
444.02, 17343.838
444.23, 17489.244
444.43, 17284.447
444.64, 17231.199
444.84, 17632.192
445.05, 17220.140
445.25, 17293.867
445.46, 17603.520
445.66, 16967.012
445.87, 17026.812
446.07, 17018.620
446.28, 17304.107
446.48, 17687.896
446.69, 17092.757
446.89, 17247.583
447.10, 17422.070
447.30, 17711.243
447.51, 17565.838
447.71, 18087.250
447.92, 17659.225
448.12, 18252.726
448.33, 17789.066
448.53, 17574.849
448.73, 18041.376
448.94, 19020.715
449.14, 18478.412
449.35, 18388.711
449.55, 18257.641
449.76, 18567.704
449.96, 18935.109
450.17, 18533.708
450.37, 18987.947
450.58, 18927.737
450.78, 18938.796
450.99, 18757.755
451.19, 18792.161
451.40, 18839.674
451.60, 18978.526
451.81, 19168.988
452.01, 18693.449
452.21, 18763.080
452.42, 18691.811
452.62, 17952.904
452.83, 18327.682
453.03, 18593.918
453.24, 18410.420
453.44, 18258.051
453.65, 18121.656
453.85, 18667.235
454.06, 18010.656
454.26, 18173.265
454.46, 18180.228
454.67, 17967.239
454.87, 18260.509
455.08, 18156.881
455.28, 17466.716
455.49, 18656.176
455.69, 18222.007
455.89, 17891.874
456.10, 17623.590
456.30, 18595.147
456.51, 18190.878
456.71, 17921.365
456.92, 17978.708
457.12, 18751.611
457.32, 18004.512
457.53, 18207.671
457.73, 18417.383
457.94, 18833.940
458.14, 18346.114
458.35, 18212.176
458.55, 17889.417
458.75, 18674.608
458.96, 18949.855
459.16, 18353.077
459.37, 18723.759
459.57, 18502.578
459.77, 18552.549
459.98, 18362.088
460.18, 18815.918
460.39, 19011.294
460.59, 18860.563
460.79, 19175.951
461.00, 18634.877
461.20, 19325.043
461.41, 19493.386
461.61, 19352.895
461.81, 19207.899
462.02, 19413.515
462.22, 20275.300
462.43, 19968.924
462.63, 19482.736
462.83, 20252.773
463.04, 20204.031
463.24, 20453.883
463.45, 20480.097
463.65, 20429.307
463.85, 20855.285
464.06, 20376.470
464.26, 20923.687
464.46, 21349.665
464.67, 21586.410
464.87, 21325.499
465.08, 21085.886
465.28, 22103.317
465.48, 22042.288
465.69, 21995.594
465.89, 21846.092
466.09, 23186.283
466.30, 22964.693
466.50, 22614.900
466.71, 23354.626
466.91, 23719.574
467.11, 24359.769
467.32, 23883.412
467.52, 23998.507
467.72, 24582.998
467.93, 24029.637
468.13, 24871.352
468.33, 24133.673
468.54, 25416.521
468.74, 24912.311
468.94, 24898.385
469.15, 24512.138
469.35, 24619.861
469.55, 24908.215
469.76, 24453.156
469.96, 24383.935
470.17, 24093.533
470.37, 24854.558
470.57, 24449.061
470.78, 24442.097
470.98, 25035.189
471.18, 24907.806
471.39, 24542.858
471.59, 24804.178
471.79, 24966.377
471.99, 24719.392
472.20, 24946.717
472.40, 24825.477
472.60, 24528.931
472.81, 25114.650
473.01, 25331.735
473.21, 25006.108
473.42, 25310.027
473.62, 25346.890
473.82, 25421.436
474.03, 24904.529
474.23, 25295.691
474.43, 25090.075
474.64, 24227.470
474.84, 24694.817
475.04, 24734.138
475.25, 24403.596
475.45, 24415.883
475.65, 23896.928
475.85, 24091.076
476.06, 24304.474
476.26, 23912.493
476.46, 23950.175
476.67, 23982.943
476.87, 24144.732
477.07, 24043.563
477.28, 23787.157
477.48, 24366.323
477.68, 24275.393
477.88, 23934.611
478.09, 24295.053
478.29, 24526.474
478.49, 25111.374
478.70, 24422.437
478.90, 24779.193
479.10, 25228.927
479.30, 25656.133
479.51, 25055.669
479.71, 25229.337
479.91, 26236.937
480.11, 26255.369
480.32, 26328.686
480.52, 26499.487
480.72, 26369.646
480.93, 26936.523
481.13, 26601.476
481.33, 27126.984
481.53, 27449.335
481.74, 27744.652
481.94, 27730.726
482.14, 27160.162
482.34, 27838.858
482.55, 28016.622
482.75, 27581.224
482.95, 27360.043
483.15, 27994.504
483.36, 27397.726
483.56, 28297.194
483.76, 27385.029
483.96, 27596.789
484.17, 27675.021
484.37, 27174.497
484.57, 27326.866
484.77, 27542.313
484.98, 27446.468
485.18, 26979.531
485.38, 26884.915
485.58, 27537.807
485.79, 26947.992
485.99, 26599.837
486.19, 26727.631
486.39, 27425.988
486.59, 26592.465
486.80, 26599.428
487.00, 26274.210
487.20, 26895.974
487.40, 26598.609
487.61, 26473.682
487.81, 26155.838
488.01, 26504.812
488.21, 26779.649
488.41, 26533.074
488.62, 26645.712
488.82, 26331.553
489.02, 26918.911
489.22, 26665.782
489.43, 26906.213
489.63, 27400.184
489.83, 27219.143
490.03, 27181.460
490.23, 27040.560
490.44, 27598.017
490.64, 27623.003
490.84, 27934.294
491.04, 27900.297
491.24, 28193.567
491.45, 28544.998
491.65, 28213.227
491.85, 28138.681
492.05, 29054.123
492.25, 28595.378
492.45, 28389.352
492.66, 28162.847
492.86, 28505.677
493.06, 28649.444
493.26, 28382.389
493.46, 28271.799
493.67, 28995.551
493.87, 27996.142
494.07, 27957.641
494.27, 27777.419
494.47, 27799.947
494.67, 27836.810
494.88, 27298.604
495.08, 27336.287
495.28, 27547.637
495.48, 27184.328
495.68, 26863.616
495.89, 26684.214
496.09, 26846.003
496.29, 26868.121
496.49, 26781.697
496.69, 26401.594
496.89, 26121.022
497.09, 26597.789
497.30, 26226.697
497.50, 26044.019
497.70, 26349.576
497.90, 26687.900
498.10, 25880.591
498.30, 26327.867
498.51, 25766.724
498.71, 25747.063
498.91, 25658.181
499.11, 25620.908
499.31, 25831.030
499.51, 26001.830
499.71, 25486.152
499.92, 25304.702
500.12, 25546.772
500.32, 25537.761
500.52, 25744.196
500.72, 25135.540
500.92, 25613.126
501.12, 25767.133
501.32, 25009.794
501.53, 25386.621
501.73, 25677.023
501.93, 25648.761
502.13, 25060.994
502.33, 25084.340
502.53, 25407.510
502.73, 25307.979
502.93, 25054.850
503.14, 25238.757
503.34, 25251.045
503.54, 25114.650
503.74, 25107.687
503.94, 24775.097
504.14, 25352.215
504.34, 24924.189
504.54, 24853.330
504.74, 24673.927
504.95, 24877.496
505.15, 25308.388
505.35, 24349.529
505.55, 24685.396
505.75, 24575.215
505.95, 24802.540
506.15, 24335.193
506.35, 24458.072
506.55, 24414.245
506.75, 24799.673
506.95, 24267.611
507.16, 24159.068
507.36, 24539.990
507.56, 24613.717
507.76, 24428.990
507.96, 24269.658
508.16, 24281.946
508.36, 24407.282
508.56, 24143.913
508.76, 24374.924
508.96, 24336.832
509.16, 24719.802
509.36, 24150.876
509.57, 24281.946
509.77, 24368.780
509.97, 24245.902
510.17, 24293.415
510.37, 24521.559
510.57, 24212.315
510.77, 24166.031
510.97, 24404.824
511.17, 24056.670
511.37, 24781.651
511.57, 24530.160
511.77, 24138.588
511.97, 24202.076
512.17, 24571.939
512.37, 24764.857
512.57, 24464.216
512.78, 24202.485
512.98, 24517.872
513.18, 24376.972
513.38, 24153.743
513.58, 24300.378
513.78, 24710.791
513.98, 24562.108
514.18, 24555.555
514.38, 24333.555
514.58, 24196.341
514.78, 24537.942
514.98, 24524.016
515.18, 24510.090
515.38, 24675.566
515.58, 24640.341
515.78, 24329.050
515.98, 24503.536
516.18, 24916.817
516.38, 25085.979
516.58, 24742.330
516.78, 24445.784
516.98, 24689.082
517.18, 24908.215
517.38, 24709.562
517.58, 25037.237
517.78, 24864.798
517.98, 25337.469
518.18, 24888.145
518.38, 25145.780
518.58, 25552.916
518.78, 25050.344
518.98, 25227.698
519.18, 24932.381
519.38, 25275.621
519.58, 25366.551
519.78, 25105.230
519.98, 25281.355
520.18, 25459.528
520.38, 25494.344
520.58, 25505.403
520.78, 25299.377
520.98, 25713.886
521.18, 25533.665
521.38, 25517.691
521.58, 25363.683
521.78, 25773.687
521.98, 25601.248
522.18, 25437.410
522.38, 25775.735
522.58, 25214.182
522.78, 25647.941
522.98, 25550.458
523.18, 25388.669
523.38, 25838.403
523.58, 25658.591
523.78, 25268.248
523.98, 25559.469
524.18, 25834.716
524.38, 25829.391
524.58, 25669.240
524.78, 25596.742
524.98, 26204.170
525.18, 25834.716
525.38, 25751.159
525.58, 25860.111
525.78, 26059.174
525.98, 25892.469
526.18, 25737.233
526.38, 25487.790
526.58, 25829.801
526.78, 25622.547
526.98, 25702.008
527.17, 25495.573
527.37, 25577.901
527.57, 25626.233
527.77, 25362.045
527.97, 25633.606
528.17, 25466.082
528.37, 25634.015
528.57, 25466.901
528.77, 25314.532
528.97, 25646.713
529.17, 25530.388
529.37, 25384.573
529.57, 25155.610
529.77, 25160.934
529.97, 25605.344
530.17, 25187.148
530.36, 25015.529
530.56, 25126.529
530.76, 24910.263
530.96, 24853.739
531.16, 24827.525
531.36, 25250.636
531.56, 25254.731
531.76, 24421.618
531.96, 24663.688
532.16, 25043.381
532.36, 24808.274
532.56, 24752.979
532.76, 24779.193
532.95, 24832.031
533.15, 24959.005
533.35, 24789.433
533.55, 24599.791
533.75, 25305.931
533.95, 24764.038
534.15, 24833.669
534.35, 24575.625
534.55, 25020.853
534.75, 24732.499
534.94, 24474.865
535.14, 24383.935
535.34, 24594.466
535.54, 24492.068
535.74, 24687.444
535.94, 24336.832
536.14, 24469.131
536.34, 24723.898
536.54, 24389.669
536.73, 24079.607
536.93, 24433.086
537.13, 24534.666
537.33, 24195.522
537.53, 23818.286
537.73, 23904.710
537.93, 23866.618
538.13, 24101.315
538.32, 23739.235
538.52, 23740.054
538.72, 23772.002
538.92, 23559.013
539.12, 23551.231
539.32, 23930.515
539.52, 23752.342
539.72, 23685.987
539.91, 23313.667
540.11, 23491.430
540.31, 23560.242
540.51, 23301.788
540.71, 23562.700
540.91, 23901.843
541.11, 23472.179
541.30, 23155.973
541.50, 23028.999
541.70, 23115.014
541.90, 23220.279
542.10, 23062.176
542.30, 22951.176
542.49, 23406.644
542.69, 23164.575
542.89, 22884.003
543.09, 23191.608
543.29, 23529.523
543.49, 23557.785
543.68, 23067.501
543.88, 22975.342
544.08, 23219.050
544.28, 23169.899
544.48, 23203.076
544.68, 22862.704
544.87, 23261.239
545.07, 23002.785
545.27, 22871.305
545.47, 22938.069
545.67, 22920.457
545.87, 22952.405
546.06, 22846.320
546.26, 22680.025
546.46, 22930.696
546.66, 22998.689
546.86, 22985.172
547.05, 22816.010
547.25, 22884.003
547.45, 23333.327
547.65, 22596.468
547.85, 22180.321
548.04, 23040.058
548.24, 22696.409
548.44, 22367.096
548.64, 22454.749
548.84, 22872.125
549.03, 22224.147
549.23, 22383.479
549.43, 22236.845
549.63, 22580.084
549.83, 22525.608
550.02, 22354.398
550.22, 22285.586
550.42, 22465.398
550.62, 22561.243
550.82, 22023.037
551.01, 22086.524
551.21, 22440.822
551.41, 22781.604
551.61, 21905.074
551.80, 22402.730
552.00, 22246.265
552.20, 22427.306
552.40, 21971.018
552.60, 22371.601
552.79, 22380.202
552.99, 22313.848
553.19, 22204.487
553.39, 21913.266
553.58, 22327.774
553.78, 21829.708
553.98, 22004.195
554.18, 21976.343
554.37, 21703.963
554.57, 21838.310
554.77, 22002.557
554.97, 21904.664
555.16, 22240.531
555.36, 22394.129
555.56, 21698.229
555.76, 21619.177
555.95, 22324.088
556.15, 21955.044
556.35, 21749.019
556.55, 21559.786
556.74, 21617.949
556.94, 21860.018
557.14, 21610.166
557.34, 21545.450
557.53, 22026.314
557.73, 21714.613
557.93, 21575.351
558.13, 21349.665
558.32, 21568.388
558.52, 21792.026
558.72, 21298.875
558.92, 21643.753
559.11, 21854.284
559.31, 21724.443
559.51, 21674.882
559.70, 21508.997
559.90, 21735.502
560.10, 21501.214
560.30, 21445.510
560.49, 21432.403
560.69, 21482.783
560.89, 21763.354
561.08, 21239.894
561.28, 21139.953
561.48, 21479.506
561.68, 21455.749
561.87, 21120.292
562.07, 21157.565
562.27, 21217.775
562.46, 21233.750
562.66, 21234.159
562.86, 20824.565
563.05, 21269.384
563.25, 20882.728
563.45, 20713.975
563.65, 20872.898
563.84, 21273.890
564.04, 20858.562
564.24, 20750.019
564.43, 20676.702
564.63, 21058.853
564.83, 20835.215
565.02, 20632.056
565.22, 20639.429
565.42, 20623.864
565.61, 20832.348
565.81, 20620.178
566.01, 20659.090
566.20, 20838.492
566.40, 20532.525
566.60, 20584.134
566.79, 20321.584
566.99, 21099.812
567.19, 20788.112
567.38, 20534.983
567.58, 20339.197
567.78, 20719.300
567.97, 20571.846
568.17, 20392.854
568.37, 20454.702
568.56, 21142.410
568.76, 20606.252
568.96, 20467.400
569.15, 20573.075
569.35, 21936.612
569.55, 21073.189
569.74, 20445.691
569.94, 20381.385
570.14, 20827.023
570.33, 20517.780
570.53, 20213.452
570.73, 20315.850
570.92, 20379.337
571.12, 20422.344
571.31, 19863.658
571.51, 20029.954
571.71, 20450.197
571.90, 20479.278
572.10, 20045.109
572.30, 20063.131
572.49, 20631.647
572.69, 20449.787
572.88, 20150.784
573.08, 19695.315
573.28, 20401.865
573.47, 20039.374
573.67, 19617.083
573.87, 19666.644
574.06, 19922.230
574.26, 20020.123
574.45, 19730.541
574.65, 19458.570
574.85, 20035.278
575.04, 19780.921
575.24, 19747.334
575.44, 19475.364
575.63, 20017.256
575.83, 19599.471
576.02, 19490.109
576.22, 19498.301
576.42, 19774.367
576.61, 19849.732
576.81, 19358.220
577.00, 19540.489
577.20, 19755.116
577.40, 19902.980
577.59, 19390.987
577.79, 19440.139
577.98, 19782.969
578.18, 19602.747
578.37, 19551.548
578.57, 19264.423
578.77, 19386.072
578.96, 19376.242
579.16, 19353.714
579.35, 18986.309
579.55, 19426.622
579.75, 19153.013
579.94, 19277.530
580.14, 19120.655
580.33, 19756.345
580.53, 19365.592
580.72, 19140.316
580.92, 19454.474
581.12, 19148.917
581.31, 19390.987
581.51, 19338.559
581.70, 19281.216
581.90, 19811.640
582.09, 19171.035
582.29, 18862.202
582.48, 19091.984
582.68, 19443.415
582.88, 19470.858
583.07, 19052.253
583.27, 18882.681
583.46, 19371.327
583.66, 19481.508
583.85, 19276.711
584.05, 19066.179
584.24, 19825.566
584.44, 19528.201
584.63, 18979.346
584.83, 19050.205
585.03, 19529.840
585.22, 19143.593
585.42, 18800.763
585.61, 18947.397
585.81, 19294.323
586.00, 19092.803
586.20, 18842.132
586.39, 18815.508
586.59, 19055.120
586.78, 18940.434
586.98, 18899.065
587.17, 18817.966
587.37, 19060.855
587.56, 19308.249
587.76, 18662.320
587.95, 18808.955
588.15, 18815.508
588.34, 19080.925
588.54, 18551.320
588.74, 18561.560
588.93, 18764.718
589.13, 18867.936
589.32, 18534.117
589.52, 18212.996
589.71, 19082.154
589.91, 18495.206
590.10, 18234.704
590.30, 18396.494
590.49, 18551.320
590.69, 18534.117
590.88, 18267.472
591.08, 18165.892
591.27, 18537.394
591.47, 18226.922
591.66, 18031.546
591.85, 18216.682
592.05, 18564.427
592.24, 18557.464
592.44, 18133.944
592.63, 17795.210
592.83, 18364.955
593.02, 18255.593
593.22, 17891.874
593.41, 17752.612
593.61, 18178.590
593.80, 18552.549
594.00, 17855.011
594.19, 17807.907
594.39, 17939.797
594.58, 17871.804
594.78, 17619.904
594.97, 17739.505
595.17, 17936.930
595.36, 17950.446
595.56, 17549.044
595.75, 17517.915
595.94, 17972.564
596.14, 17795.620
596.33, 17472.860
596.53, 17213.177
596.72, 17764.491
596.92, 17651.852
597.11, 17332.779
597.31, 17643.660
597.50, 17744.011
597.69, 17830.435
597.89, 17370.461
598.08, 16971.107
598.28, 17879.996
598.47, 17517.096
598.67, 17357.764
598.86, 17151.738
599.06, 17553.140
599.25, 17156.653
599.44, 17023.126
599.64, 17086.203
599.83, 17271.749
600.03, 17173.856
600.22, 16914.993
600.42, 16862.565
600.61, 16962.916
600.80, 16847.001
601.00, 16779.827
601.19, 16547.178
601.39, 17016.982
601.58, 16694.222
601.78, 16592.643
601.97, 16589.776
602.16, 16798.668
602.36, 16612.303
602.55, 16677.019
602.75, 16259.233
602.94, 16718.388
603.13, 16786.790
603.33, 16224.008
603.52, 16132.669
603.72, 16745.831
603.91, 16254.728
604.10, 16180.182
604.30, 16111.780
604.49, 16424.709
604.69, 16373.920
604.88, 15925.824
605.07, 16035.186
605.27, 16156.835
605.46, 16063.448
605.66, 16080.241
605.85, 15770.179
606.04, 16368.595
606.24, 16353.850
606.43, 15758.300
606.62, 15840.219
606.82, 16050.341
607.01, 16086.795
607.21, 15688.669
607.40, 15839.810
607.59, 15935.654
607.79, 15743.555
607.98, 15698.909
608.17, 15465.441
608.37, 15897.972
608.56, 16337.466
608.76, 15430.216
608.95, 15469.946
609.14, 16070.411
609.34, 15846.363
609.53, 15535.481
609.72, 15347.887
609.92, 15719.389
610.11, 15806.632
610.30, 15405.231
610.50, 15399.087
610.69, 15371.234
610.88, 15769.359
611.08, 15318.806
611.27, 15213.131
611.46, 15739.869
611.66, 15480.596
611.85, 15203.301
612.04, 15417.109
612.24, 15712.016
612.43, 15516.640
612.62, 15059.943
612.82, 15079.194
613.01, 15490.836
613.20, 15596.101
613.40, 15271.293
613.59, 14989.493
613.78, 15629.688
613.98, 15039.054
614.17, 15186.507
614.36, 15071.002
614.56, 16230.562
614.75, 15237.297
614.94, 15118.105
615.14, 15130.393
615.33, 15716.112
615.52, 15630.098
615.72, 15245.079
615.91, 15206.987
616.10, 15627.640
616.30, 15653.854
616.49, 15293.411
616.68, 15333.961
616.88, 15859.060
617.07, 15968.832
617.26, 15370.415
617.45, 15370.825
617.65, 16187.964
617.84, 15492.064
618.03, 15469.127
618.23, 15563.743
618.42, 15825.883
618.61, 15689.489
618.80, 15596.511
619.00, 15647.300
619.19, 16171.171
619.38, 16123.658
619.58, 15738.230
619.77, 15727.171
619.96, 16155.197
620.15, 15981.529
620.35, 15836.533
620.54, 15679.658
620.73, 16020.850
620.93, 16233.429
621.12, 15741.097
621.31, 15908.212
621.50, 16174.038
621.70, 16713.883
621.89, 15890.190
622.08, 15754.204
622.27, 16429.215
622.47, 16324.768
622.66, 15760.348
622.85, 15866.433
623.04, 16119.972
623.24, 15950.809
623.43, 16081.879
623.62, 15839.810
623.81, 16168.304
624.01, 16129.802
624.20, 15756.662
624.39, 15990.950
624.58, 16026.994
624.78, 16198.204
624.97, 15682.935
625.16, 15661.636
625.35, 15864.795
625.55, 16175.676
625.74, 15639.928
625.93, 15675.972
626.12, 15798.031
626.32, 15582.585
626.51, 15444.961
626.70, 15390.895
626.89, 15584.223
627.09, 15744.374
627.28, 15340.105
627.47, 15403.183
627.66, 15853.326
627.85, 15573.164
628.05, 15265.149
628.24, 15215.998
628.43, 15745.193
628.62, 15697.271
628.82, 15283.991
629.01, 15231.972
629.20, 15504.762
629.39, 15477.729
629.58, 14935.426
629.78, 14994.408
629.97, 15319.625
630.16, 15066.087
630.35, 14942.799
630.54, 14900.611
630.74, 15070.592
630.93, 15022.670
631.12, 14855.556
631.31, 14634.785
631.50, 15064.039
631.70, 15194.699
631.89, 14595.054
632.08, 14715.065
632.27, 14604.884
632.46, 15048.884
632.65, 14577.442
632.85, 14342.335
633.04, 14710.969
633.23, 14844.906
633.42, 14341.925
633.61, 14345.611
633.81, 14615.124
634.00, 14452.925
634.19, 14221.914
634.38, 14217.818
634.57, 14227.648
634.76, 14282.124
634.96, 13992.951
635.15, 14016.298
635.34, 14427.940
635.53, 14389.848
635.72, 14035.549
635.91, 13890.143
636.11, 14326.770
636.30, 14317.759
636.49, 13945.848
636.68, 13690.671
636.87, 13939.704
637.06, 14482.416
637.26, 13718.523
637.45, 13745.557
637.64, 14009.745
637.83, 14085.519
638.02, 13663.228
638.21, 13603.018
638.40, 14299.737
638.60, 14190.785
638.79, 13632.509
638.98, 13382.247
639.17, 13781.191
639.36, 13476.863
639.55, 13407.642
639.74, 13326.542
639.93, 13551.409
640.13, 13570.660
640.32, 13165.572
640.51, 13032.454
640.70, 13493.657
640.89, 13481.778
641.08, 13020.576
641.27, 12982.483
641.46, 13294.594
641.66, 13444.505
641.85, 12919.406
642.04, 12785.469
642.23, 13345.793
642.42, 13039.827
642.61, 12873.941
642.80, 12581.082
642.99, 12998.867
643.18, 13269.609
643.38, 12802.672
643.57, 12746.557
643.76, 12851.823
643.95, 13167.620
644.14, 12801.443
644.33, 12724.849
644.52, 13312.206
644.71, 12914.491
644.90, 12668.735
645.09, 12558.144
645.29, 12971.834
645.48, 12831.753
645.67, 12698.635
645.86, 12669.144
646.05, 13052.114
646.24, 13249.948
646.43, 12592.550
646.62, 12638.834
646.81, 12814.960
647.00, 12845.270
647.19, 12474.178
647.38, 12675.288
647.57, 12892.782
647.77, 12943.572
647.96, 12643.749
648.15, 12431.580
648.34, 13166.391
648.53, 13141.815
648.72, 12516.366
648.91, 12717.886
649.10, 13128.299
649.29, 12549.543
649.48, 12405.776
649.67, 12547.905
649.86, 13106.590
650.05, 12469.263
650.24, 12438.543
650.43, 12510.632
650.62, 12518.823
650.81, 12834.620
651.01, 12147.322
651.20, 12091.208
651.39, 12515.547
651.58, 12554.458
651.77, 11873.713
651.96, 12132.576
652.15, 12352.528
652.34, 12066.222
652.53, 12062.536
652.72, 11885.591
652.91, 12255.455
653.10, 12107.591
653.29, 11705.370
653.48, 11625.090
653.67, 12139.540
653.86, 12009.698
654.05, 11672.603
654.24, 11636.149
654.43, 11926.551
654.62, 11821.695
654.81, 11675.060
655.00, 11540.714
655.19, 11873.713
655.38, 11959.728
655.57, 11486.647
655.76, 11547.677
655.95, 11858.968
656.14, 11585.769
656.33, 11531.293
656.52, 11504.260
656.71, 11713.972
656.90, 11676.699
657.09, 11412.511
657.28, 11348.614
657.47, 11632.053
657.66, 11837.259
657.85, 11263.009
658.04, 11448.555
658.23, 11468.215
658.42, 11711.924
658.61, 11290.042
658.80, 11180.271
658.99, 11498.525
659.18, 11956.861
659.37, 11032.817
659.56, 11136.035
659.75, 11564.470
659.94, 11317.075
660.13, 10966.053
660.32, 11176.175
660.51, 11427.666
660.70, 11268.334
660.89, 11204.847
661.08, 10931.238
661.27, 11473.131
661.46, 11331.411
661.65, 10955.404
661.84, 11115.555
662.03, 11286.765
662.22, 11395.308
662.41, 10925.504
662.60, 10844.404
662.78, 11091.389
662.97, 11280.212
663.16, 10967.282
663.35, 10922.227
663.54, 11213.038
663.73, 11446.097
663.92, 10825.153
664.11, 10845.633
664.30, 11042.238
664.49, 11220.002
664.68, 10791.976
664.87, 10769.448
665.06, 11209.762
665.25, 11109.821
665.44, 10836.622
665.63, 10776.412
665.82, 11084.016
666.01, 11431.352
666.19, 10724.803
666.38, 10812.046
666.57, 11441.182
666.76, 10984.076
666.95, 10927.961
667.14, 10760.847
667.33, 11122.109
667.52, 11451.832
667.71, 10957.452
667.90, 10986.533
668.09, 11278.983
668.28, 10926.323
668.46, 10633.463
668.65, 10871.028
668.84, 11421.522
669.03, 10825.153
669.22, 10692.035
669.41, 10762.076
669.60, 11376.466
669.79, 10708.009
669.98, 10732.175
670.17, 10530.655
670.35, 10922.227
670.54, 10749.788
670.73, 10509.766
670.92, 10543.353
671.11, 10836.622
671.30, 10413.512
671.49, 10451.194
671.68, 10328.316
671.87, 10913.216
672.05, 10846.042
672.24, 10311.113
672.43, 10465.530
672.62, 10598.648
672.81, 10906.662
673.00, 10465.530
673.19, 10340.194
673.38, 10677.699
673.57, 10597.829
673.75, 10644.113
673.94, 10358.626
674.13, 10651.895
674.32, 10580.216
674.51, 10363.951
674.70, 10402.862
674.89, 10311.523
675.07, 10710.057
675.26, 10621.585
675.45, 10399.995
675.64, 10725.622
675.83, 10794.434
676.02, 10523.283
676.21, 10605.201
676.39, 10560.965
676.58, 10379.925
676.77, 10047.744
676.96, 10180.453
677.15, 10410.235
677.34, 10760.028
677.52, 10130.073
677.71, 10079.693
677.90, 10488.467
678.09, 10520.825
678.28, 10109.183
678.47, 10227.556
678.65, 10434.810
678.84, 10635.921
679.03, 10003.918
679.22, 10054.707
679.41, 10232.061
679.60, 10328.316
679.78, 10126.386
679.97, 10112.460
680.16, 10564.242
680.35, 10488.467
680.54, 10368.866
680.73, 10023.988
680.91, 10533.522
681.10, 10642.884
681.29, 10259.095
681.48, 10302.102
681.67, 10658.858
681.85, 10337.327
682.04, 10223.460
682.23, 10223.460
682.42, 10448.327
682.61, 10327.497
682.79, 10290.224
682.98, 10356.578
683.17, 10585.950
683.36, 10488.058
683.55, 10332.412
683.73, 10448.327
683.92, 10510.585
684.11, 10526.559
684.30, 10377.467
684.49, 10253.360
684.67, 10486.010
684.86, 10415.969
685.05, 10116.966
685.24, 10100.991
685.42, 10597.419
685.61, 10366.818
685.80, 10114.098
685.99, 10220.183
686.18, 10305.788
686.36, 10261.962
686.55, 10243.120
686.74, 10033.818
686.93, 10216.907
687.11, 10351.663
687.30, 9847.863
687.49, 9847.863
687.68, 10252.951
687.86, 10223.050
688.05, 9847.863
688.24, 9925.276
688.43, 10418.427
688.61, 10128.844
688.80, 9837.623
688.99, 9704.505
689.18, 10358.626
689.36, 10190.283
689.55, 9657.401
689.74, 9425.162
689.93, 10070.682
690.11, 9856.054
690.30, 9702.047
690.49, 9488.239
690.68, 10178.814
690.86, 9615.623
691.05, 9398.129
691.24, 9328.498
691.43, 9622.996
691.61, 9826.973
691.80, 9269.926
691.99, 9147.867
692.17, 9590.638
692.36, 9444.822
692.55, 9251.904
692.74, 8905.387
692.92, 9243.712
693.11, 9223.232
693.30, 9140.494
693.49, 8924.229
693.67, 9080.284
693.86, 9273.612
694.05, 8947.166
694.23, 8886.136
694.42, 9378.059
694.61, 8877.945
694.79, 8817.325
694.98, 8735.406
695.17, 9226.509
695.36, 8672.328
695.54, 8687.483
695.73, 8542.897
695.92, 9000.823
696.10, 9027.037
696.29, 8453.605
696.48, 8665.365
696.66, 9258.867
696.85, 8557.642
697.04, 8375.373
697.22, 8429.030
697.41, 8930.782
697.60, 8517.092
697.79, 8293.454
697.97, 8329.498
698.16, 8834.528
698.35, 8574.845
698.53, 8335.233
698.72, 8237.750
698.91, 8852.140
699.09, 8497.022
699.28, 8267.650
699.47, 8278.709
699.65, 8246.761
699.84, 8641.199
700.03, 8172.624
700.21, 8116.100
700.40, 8271.746
700.59, 8280.347
700.77, 8058.347
700.96, 8032.953
701.15, 8624.816
701.33, 8482.277
701.52, 7867.886
701.70, 8018.617
701.89, 8537.163
702.08, 8079.237
702.26, 7816.687
702.45, 7781.052
702.64, 7945.709
702.82, 8222.185
703.01, 7915.399
703.20, 7798.665
703.38, 8524.465
703.57, 7998.137
703.76, 7934.650
703.94, 7901.473
704.13, 8097.259
704.31, 7840.034
704.50, 7966.189
704.69, 8009.196
704.87, 8104.222
705.06, 8099.307
705.25, 7848.226
705.43, 7767.126
705.62, 8149.687
705.80, 8217.679
705.99, 7892.872
706.18, 7851.503
706.36, 8083.333
706.55, 8085.381
706.73, 7921.543
706.92, 7840.034
707.11, 8338.100
707.29, 8509.720
707.48, 8047.698
707.66, 8044.012
707.85, 8075.141
708.04, 8202.934
708.22, 7935.469
708.41, 8014.111
708.59, 8422.067
708.78, 8199.657
708.97, 7686.846
709.15, 7953.491
709.34, 8275.432
709.52, 8203.753
709.71, 7955.130
709.90, 7909.665
710.08, 8537.982
710.27, 8021.484
710.45, 8023.122
710.64, 7976.838
710.82, 8425.343
711.01, 8218.908
711.20, 8066.539
711.38, 7935.060
711.57, 8322.126
711.75, 8160.336
711.94, 8192.694
712.12, 8089.886
712.31, 8310.657
712.50, 8497.842
712.68, 8012.883
712.87, 8218.908
713.05, 8385.613
713.24, 8158.288
713.42, 8011.244
713.61, 7959.635
713.79, 8521.598
713.98, 8150.506
714.17, 7937.108
714.35, 8031.724
714.54, 8205.392
714.72, 8109.137
714.91, 7966.598
715.09, 7917.038
715.28, 7957.587
715.46, 8462.616
715.65, 7733.949
715.83, 7729.444
716.02, 8259.048
716.21, 8039.097
716.39, 7792.112
716.58, 7509.492
716.76, 7796.207
716.95, 7993.632
717.13, 7424.296
717.32, 7367.363
717.50, 8032.133
717.69, 7807.676
717.87, 7360.809
718.06, 7301.009
718.24, 7460.341
718.43, 7618.034
718.61, 7317.392
718.80, 7205.573
718.98, 7529.152
719.17, 7373.097
719.35, 7301.009
719.54, 7087.610
719.72, 7287.082
719.91, 7400.130
720.09, 6973.743
720.28, 7046.241
720.46, 7258.001
720.65, 7551.680
720.83, 6951.625
721.02, 7026.581
721.20, 7391.119
721.39, 7164.614
721.57, 6835.300
721.76, 6977.839
721.94, 7136.352
722.13, 7063.444
722.31, 6953.264
722.50, 6942.614
722.68, 6965.551
722.87, 7332.957
723.05, 6802.533
723.24, 7361.628
723.42, 6994.223
723.61, 7337.053
723.79, 6672.282
723.98, 6669.415
724.16, 7245.304
724.34, 6774.681
724.53, 6786.149
724.71, 6869.297
724.90, 6887.728
725.08, 7073.274
725.27, 6672.692
725.45, 6622.312
725.64, 6802.533
725.82, 7207.212
726.01, 6454.788
726.19, 6506.806
726.38, 6822.193
726.56, 6662.452
726.74, 6709.146
726.93, 6500.253
727.11, 7362.857
727.30, 6871.754
727.48, 6610.434
727.67, 6693.581
727.85, 7026.581
728.04, 7171.167
728.22, 6743.552
728.40, 6788.607
728.59, 7019.208
728.77, 7030.677
728.96, 6669.415
729.14, 6738.636
729.33, 7547.584
729.51, 7181.407
729.69, 6981.935
729.88, 6832.433
730.06, 7196.972
730.25, 7215.813
730.43, 6854.551
730.61, 6988.489
730.80, 7234.245
730.98, 7537.344
731.17, 7058.119
731.35, 7005.282
731.54, 7248.581
731.72, 7526.285
731.90, 6989.308
732.09, 7036.821
732.27, 7575.846
732.46, 7633.189
732.64, 7039.278
732.82, 7029.858
733.01, 7441.909
733.19, 7423.887
733.38, 6870.935
733.56, 7154.374
733.74, 7425.525
733.93, 7410.780
734.11, 6986.441
734.29, 6905.341
734.48, 7328.861
734.66, 7173.215
734.85, 6738.636
735.03, 6748.876
735.21, 7070.817
735.40, 7422.658
735.58, 6752.972
735.77, 6732.083
735.95, 7133.485
736.13, 6934.422
736.32, 6583.810
736.50, 6714.470
736.68, 6739.046
736.87, 7137.581
737.05, 6560.054
737.23, 6675.559
737.42, 6938.109
737.60, 6884.452
737.79, 6582.172
737.97, 6458.884
738.15, 6954.492
738.34, 6821.374
738.52, 6554.319
738.70, 6586.677
738.89, 7009.378
739.07, 6741.913
739.25, 6598.555
739.44, 6551.862
739.62, 7036.001
739.80, 6650.574
739.99, 6333.548
740.17, 6525.238
740.35, 7122.426
740.54, 6945.072
740.72, 6425.707
740.90, 6346.655
741.09, 6526.057
741.27, 6710.374
741.45, 6461.341
741.64, 6326.995
741.82, 6701.773
742.00, 6601.422
742.19, 6367.954
742.37, 6341.740
742.55, 6500.662
742.74, 6552.271
742.92, 6264.736
743.10, 6377.784
743.29, 6709.146
743.47, 6755.430
743.65, 6174.626
743.83, 6329.043
744.02, 6475.677
744.20, 6415.876
744.38, 6073.866
744.57, 6145.954
744.75, 6272.109
744.93, 6357.305
745.12, 6148.821
745.30, 6108.272
745.48, 6923.773
745.66, 6197.153
745.85, 6048.471
746.03, 6031.268
746.21, 6521.961
746.40, 6346.246
746.58, 6074.275
746.76, 5995.224
746.94, 6578.895
747.13, 6486.736
747.31, 5992.766
747.49, 6120.969
747.68, 6363.448
747.86, 6480.592
748.04, 5964.914
748.22, 5928.460
748.41, 6415.057
748.59, 6397.035
748.77, 5797.800
748.95, 6006.692
749.14, 6071.408
749.32, 6286.445
749.50, 5853.504
749.68, 5729.807
749.87, 6072.637
750.05, 6201.659
750.23, 5789.608
750.42, 5876.032
750.60, 6055.434
750.78, 6080.829
750.96, 5826.062
751.15, 5934.604
751.33, 5806.401
751.51, 6279.072
751.69, 5839.578
751.87, 5754.383
752.06, 5898.150
752.24, 6042.737
752.42, 5716.290
752.60, 5595.051
752.79, 6265.146
752.97, 6064.445
753.15, 5675.741
753.33, 5694.991
753.52, 5903.884
753.70, 5921.906
753.88, 5586.859
754.06, 5679.837
754.24, 5826.061
754.43, 6169.301
754.61, 5574.571
754.79, 5539.346
754.97, 5833.025
755.16, 6043.556
755.34, 5676.560
755.52, 5718.748
755.70, 5939.519
755.88, 5766.261
756.07, 5626.999
756.25, 5638.468
756.43, 6061.578
756.61, 5817.050
756.79, 5840.397
756.98, 5626.589
757.16, 6057.072
757.34, 5801.076
757.52, 5723.663
757.70, 5786.331
757.89, 6271.700
758.07, 6536.707
758.25, 5853.504
758.43, 5746.191
758.61, 6178.722
758.80, 6242.618
758.98, 5915.763
759.16, 5861.287
759.34, 6417.515
759.52, 6215.176
759.70, 5966.143
759.89, 5969.419
760.07, 6242.209
760.25, 6282.349
760.43, 5936.242
760.61, 6122.198
760.79, 6397.445
760.98, 6473.220
761.16, 6323.308
761.34, 6455.198
761.52, 6544.079
761.70, 6924.182
761.88, 6827.928
762.07, 6928.688
762.25, 7609.433
762.43, 7454.197
762.61, 7328.451
762.79, 7381.699
762.97, 7799.894
763.15, 7811.362
763.34, 7672.101
763.52, 7794.159
763.70, 8435.993
763.88, 8384.794
764.06, 8226.690
764.24, 7997.318
764.42, 8495.384
764.61, 8381.926
764.79, 8101.355
764.97, 8228.329
765.15, 8197.609
765.33, 8568.292
765.51, 8030.085
765.69, 8137.809
765.87, 8285.262
766.06, 8171.395
766.24, 7560.691
766.42, 7438.632
766.60, 7632.780
766.78, 7748.285
766.96, 7182.226
767.14, 6941.795
767.32, 7274.795
767.50, 6802.943
767.69, 6635.828
767.87, 6619.854
768.05, 6938.109
768.23, 6471.581
768.41, 6389.662
768.59, 6073.047
768.77, 6387.205
768.95, 6254.087
769.13, 5920.268
769.32, 5873.984
769.50, 6269.652
769.68, 6198.792
769.86, 5839.578
770.04, 5737.589
770.22, 5769.538
770.40, 6023.486
770.58, 5539.755
770.76, 5542.623
770.94, 6045.604
771.12, 5600.375
771.30, 5511.494
771.49, 5616.759
771.67, 5837.530
771.85, 5804.353
772.03, 5524.600
772.21, 5477.907
772.39, 5641.744
772.57, 5862.106
772.75, 5250.992
772.93, 5390.254
773.11, 5791.656
773.29, 5664.682
773.47, 5273.520
773.65, 5337.007
773.83, 5735.951
774.01, 5353.390
774.19, 5239.114
774.38, 5284.169
774.56, 5652.803
774.74, 5503.711
774.92, 5058.073
775.10, 5053.158
775.28, 5146.955
775.46, 5518.866
775.64, 4873.346
775.82, 4854.096
776.00, 4938.472
776.18, 4981.479
776.36, 4791.428
776.54, 4966.324
776.72, 5043.328
776.90, 5065.036
777.08, 4762.756
777.26, 4818.461
777.44, 4946.254
777.62, 5100.261
777.80, 4694.354
777.98, 4708.280
778.16, 4834.025
778.34, 4998.682
778.52, 4719.339
778.70, 4613.254
778.88, 4824.195
779.06, 4704.184
779.24, 4604.243
779.42, 4658.310
779.60, 5056.435
779.78, 4920.450
779.96, 4412.553
780.14, 4586.221
780.32, 4856.553
780.50, 5018.343
780.68, 4497.749
780.86, 4548.539
781.04, 4816.413
781.22, 4707.051
781.40, 4682.885
781.58, 4447.369
781.76, 4795.114
781.94, 4946.664
782.12, 4538.299
782.30, 4695.992
782.48, 4802.487
782.66, 4766.442
782.84, 4508.808
783.02, 4513.723
783.20, 4869.250
783.38, 4858.191
783.56, 4271.244
783.74, 4307.697
783.92, 4515.362
784.10, 4664.454
784.28, 4408.048
784.46, 4382.244
784.64, 4691.896
784.82, 4611.206
785.00, 4243.391
785.18, 4247.487
785.36, 4828.291
785.54, 4345.790
785.72, 4344.561
785.90, 4335.140
786.08, 4434.672
786.26, 4603.834
786.43, 4434.672
786.61, 4459.657
786.79, 4980.660
786.97, 5011.380
787.15, 4417.878
787.33, 4394.122
787.51, 4564.922
787.69, 4946.254
787.87, 4478.908
788.05, 4416.649
788.23, 5260.003
788.41, 4678.380
788.59, 4641.516
788.77, 4580.897
788.95, 4799.620
789.13, 4783.645
789.30, 4504.302
789.48, 4364.221
789.66, 4821.328
789.84, 4768.900
790.02, 4467.029
790.20, 4270.424
790.38, 4811.498
790.56, 4631.277
790.74, 4331.454
790.92, 4495.291
791.10, 4885.634
791.28, 4904.885
791.45, 4555.502
791.63, 4258.137
791.81, 4986.394
791.99, 4681.247
792.17, 4256.089
792.35, 4247.487
792.53, 4211.033
792.71, 4656.671
792.89, 4099.214
793.07, 4354.801
793.24, 4433.443
793.42, 4793.885
793.60, 4079.144
793.78, 4152.871
793.96, 4374.871
794.14, 4424.841
794.32, 4116.008
794.50, 4139.354
794.67, 4412.963
794.85, 4321.624
795.03, 4132.801
795.21, 4148.366
795.39, 4401.904
795.57, 4503.483
795.75, 4163.520
795.93, 4190.963
796.10, 4721.797
796.28, 4335.140
796.46, 4009.104
796.64, 4122.561
796.82, 4631.277
797.00, 4570.247
797.18, 4118.056
797.35, 4093.890
797.53, 4408.458
797.71, 4487.509
797.89, 4283.531
798.07, 4104.539
798.25, 4399.446
798.43, 4617.760
798.60, 4122.971
798.78, 4131.982
798.96, 4776.682
799.14, 4180.723
799.32, 3958.724
799.50, 4118.056
799.67, 4311.793
799.85, 4305.240
800.03, 4043.510
800.21, 4013.200
800.39, 4335.959
800.57, 4352.343
800.74, 3996.816
800.92, 4017.296
801.10, 4204.070
801.28, 4020.163
801.46, 3839.122
801.64, 3891.960
801.81, 4462.524
801.99, 4100.033
802.17, 4005.417
802.35, 3959.133
802.53, 4123.790
802.70, 3689.620
802.88, 3799.392
803.06, 3729.761
803.24, 4133.620
803.42, 4281.074
803.59, 3794.886
803.77, 3661.359
803.95, 4459.657
804.13, 4215.129
804.31, 3815.366
804.48, 3828.882
804.66, 4217.587
804.84, 3875.986
805.02, 3863.288
805.20, 3862.469
805.37, 3972.240
805.55, 4066.037
805.73, 3763.347
805.91, 3859.602
806.08, 4147.956
806.26, 4012.790
806.44, 3679.381
806.62, 3698.632
806.80, 4072.181
806.97, 4011.561
807.15, 3755.975
807.33, 3898.923
807.51, 4206.118
807.68, 3690.440
807.86, 3786.694
808.04, 3685.115
808.22, 4010.742
808.39, 5334.139
808.57, 3752.698
808.75, 3758.023
808.93, 4039.414
809.10, 3887.454
809.28, 3716.654
809.46, 3711.329
809.64, 4246.668
809.81, 3863.698
809.99, 3791.609
810.17, 3608.111
810.35, 4443.683
810.52, 3973.469
810.70, 3762.938
810.88, 3721.569
811.06, 4086.107
811.23, 4224.960
811.41, 3678.561
811.59, 3484.414
811.77, 4133.620
811.94, 3823.148
812.12, 3798.163
812.30, 3725.665
812.47, 4048.834
812.65, 4165.159
812.83, 3755.565
813.01, 3716.654
813.18, 3856.325
813.36, 4120.923
813.54, 3701.908
813.71, 3764.167
813.89, 4456.380
814.07, 4149.594
814.25, 3928.004
814.42, 3806.764
814.60, 4412.553
814.78, 4198.336
814.95, 3597.462
815.13, 3900.152
815.31, 4013.609
815.49, 4332.273
815.66, 3776.454
815.84, 3909.982
816.02, 4311.793
816.19, 4139.764
816.37, 4033.679
816.55, 4012.790
816.72, 4489.557
816.90, 4127.886
817.08, 3861.240
817.25, 4032.860
817.43, 4507.989
817.61, 4290.904
817.78, 4191.373
817.96, 4226.188
818.14, 4314.661
818.31, 4643.155
818.49, 4333.911
818.67, 4250.764
818.84, 4569.837
819.02, 4602.605
819.20, 4485.461
819.37, 4724.664
819.55, 5033.088
819.73, 5384.519
819.90, 5134.258
820.08, 5572.933
820.26, 6017.751
820.43, 6379.013
820.61, 6339.692
820.79, 6521.142
820.96, 7167.481
821.14, 7290.359
821.32, 7473.448
821.49, 7649.163
821.67, 8305.332
821.85, 8608.841
822.02, 8727.624
822.20, 8785.786
822.37, 9441.136
822.55, 9137.627
822.73, 9410.826
822.90, 9471.855
823.08, 10181.272
823.26, 9875.715
823.43, 9873.257
823.61, 9941.250
823.78, 10217.726
823.96, 9937.154
824.14, 9881.859
824.31, 9736.043
824.49, 10204.209
824.67, 10088.294
824.84, 9394.852
825.02, 9263.372
825.19, 9485.372
825.37, 9698.361
825.55, 8824.697
825.72, 8582.218
825.90, 8574.026
826.07, 8563.786
826.25, 8421.248
826.43, 7957.587
826.60, 8075.960
826.78, 8207.440
826.95, 7757.296
827.13, 7551.270
827.31, 8091.115
827.48, 7819.964
827.66, 7344.426
827.83, 7399.721
828.01, 7445.595
828.19, 7356.304
828.36, 6995.042
828.54, 7167.481
828.71, 7011.835
828.89, 6946.300
829.06, 6503.530
829.24, 6755.020
829.42, 6560.054
829.59, 6623.950
829.77, 6016.523
829.94, 5812.135
830.12, 5946.072
830.29, 5660.586
830.47, 5303.829
830.65, 5106.815
830.82, 5692.124
831.00, 5253.449
831.17, 4841.398
831.35, 4856.144
831.52, 5090.022
831.70, 5153.918
831.87, 4663.225
832.05, 4679.609
832.23, 5124.427
832.40, 5086.335
832.58, 5004.826
832.75, 4888.092
832.93, 5196.106
833.10, 5201.431
833.28, 5146.545
833.45, 5103.538
833.63, 5411.143
833.80, 5129.343
833.98, 5162.110
834.15, 5248.125
834.33, 5497.158
834.51, 5362.811
834.68, 4985.575
834.86, 4991.309
835.03, 5341.103
835.21, 5371.003
835.38, 4983.527
835.56, 5028.992
835.73, 5303.420
835.91, 5412.781
836.08, 4784.465
836.26, 4857.372
836.43, 4958.952
836.61, 4974.926
836.78, 4432.214
836.96, 4281.893
837.13, 4915.125
837.31, 4597.690
837.48, 4212.672
837.66, 3932.510
837.83, 4326.948
838.01, 4371.184
838.18, 3713.377
838.36, 3656.034
838.53, 4118.875
838.71, 4426.480
838.88, 3664.226
839.06, 3707.233
839.23, 4156.557
839.41, 4157.786
839.58, 3681.019
839.76, 3567.152
839.93, 4284.760
840.11, 4228.646
840.28, 3617.942
840.46, 3712.558
840.63, 3878.443
840.81, 3976.746
840.98, 3502.846
841.15, 3593.366
841.33, 4161.063
841.50, 3855.506
841.68, 3593.776
841.85, 3607.702
842.03, 4209.805
842.20, 4127.476
842.38, 3368.499
842.55, 3335.732
842.73, 3847.314
842.90, 3728.941
843.08, 3370.547
843.25, 3422.156
843.42, 3633.506
843.60, 3759.661
843.77, 3126.429
843.95, 3066.219
844.12, 3280.027
844.30, 3657.263
844.47, 2971.603
844.64, 2988.806
844.82, 3821.100
844.99, 3414.374
845.17, 2976.108
845.34, 2784.009
845.52, 3382.016
845.69, 3462.296
845.87, 2907.706
846.04, 2821.282
846.21, 3267.329
846.39, 3316.890
846.56, 2876.167
846.74, 2789.743
846.91, 3193.193
847.08, 3257.909
847.26, 2713.149
847.43, 2820.872
847.61, 3175.171
847.78, 3468.030
847.95, 2802.440
848.13, 2755.747
848.30, 3189.097
848.48, 3130.115
848.65, 2840.533
848.83, 2765.577
849.00, 3132.163
849.17, 3262.005
849.35, 2750.422
849.52, 2668.913
849.69, 3346.791
849.87, 3076.868
850.04, 2716.016
850.22, 2625.906
850.39, 3121.104
850.56, 3366.451
850.74, 2650.481
850.91, 2677.924
851.09, 3042.872
851.26, 3188.687
851.43, 2568.972
851.61, 2780.322
851.78, 3012.972
851.95, 3141.584
852.13, 2655.396
852.30, 2605.835
852.48, 3613.436
852.65, 3167.798
852.82, 2663.998
853.00, 2646.795
853.17, 3297.230
853.34, 2869.204
853.52, 2682.429
853.69, 2549.721
853.86, 3310.337
854.04, 3175.580
854.21, 2703.728
854.38, 2611.979
854.56, 3027.307
854.73, 2969.964
854.90, 2737.315
855.08, 2651.300
855.25, 3190.326
855.42, 2847.086
855.60, 2731.581
855.77, 2719.293
855.95, 3203.842
856.12, 3248.898
856.29, 2540.710
856.46, 2754.518
856.64, 3055.979
856.81, 3164.112
856.98, 2720.931
857.16, 2697.994
857.33, 2918.355
857.50, 3231.695
857.68, 2596.005
857.85, 2677.514
858.02, 2969.145
858.20, 2985.938
858.37, 2696.765
858.54, 2588.632
858.72, 3616.303
858.89, 3308.698
859.06, 2616.894
859.24, 2620.171
859.41, 3168.617
859.58, 3217.768
859.75, 2664.817
859.93, 2665.636
860.10, 3183.363
860.27, 3234.971
860.45, 2616.075
860.62, 2668.913
860.79, 3107.588
860.97, 3169.436
861.14, 2644.747
861.31, 2669.322
861.48, 3107.178
861.66, 2868.795
861.83, 2566.514
862.00, 2548.902
862.17, 2890.503
862.35, 3202.204
862.52, 2583.308
862.69, 2664.407
862.87, 3164.112
863.04, 3162.883
863.21, 2505.485
863.38, 2658.263
863.56, 3128.477
863.73, 3017.068
863.90, 2597.644
864.07, 2784.828
864.25, 3354.163
864.42, 2956.038
864.59, 2546.854
864.76, 2586.585
864.94, 3283.304
865.11, 2987.986
865.28, 2532.109
865.45, 2611.979
865.63, 3096.119
865.80, 2957.267
865.97, 2634.917
866.14, 2613.208
866.32, 3207.119
866.49, 2972.012
866.66, 2765.577
866.83, 2611.160
867.01, 3058.027
867.18, 3089.566
867.35, 2505.895
867.52, 2591.500
867.70, 3320.577
867.87, 3492.196
868.04, 2587.813
868.21, 2646.385
868.38, 3177.219
868.56, 3397.580
868.73, 2655.806
868.90, 2594.776
869.07, 3108.407
869.24, 3301.326
869.42, 2688.983
869.59, 2859.784
869.76, 3408.639
869.93, 3036.728
870.11, 2827.835
870.28, 2643.108
870.45, 3485.643
870.62, 3248.898
870.79, 2729.533
870.97, 2824.968
871.14, 3339.827
871.31, 3308.698
871.48, 2764.758
871.65, 2913.440
871.82, 3519.639
872.00, 3248.898
872.17, 2716.016
872.34, 2777.865
872.51, 3111.684
872.68, 3302.145
872.86, 2906.477
873.03, 2713.968
873.20, 3229.237
873.37, 3672.418
873.54, 2658.263
873.71, 2745.917
873.89, 3567.562
874.06, 3314.433
874.23, 2734.857
874.40, 2797.525
874.57, 3556.093
874.74, 3194.831
874.92, 2840.123
875.09, 2661.131
875.26, 3490.968
875.43, 3353.344
875.60, 2797.525
875.77, 2855.278
875.95, 3130.115
876.12, 3323.853
876.29, 2750.422
876.46, 2921.223
876.63, 3238.248
876.80, 3402.905
876.97, 3075.639
877.15, 2768.444
877.32, 3565.104
877.49, 3261.185
877.66, 3193.193
877.83, 3016.658
878.00, 3323.034
878.17, 3877.624
878.34, 2990.444
878.52, 3132.163
878.69, 3583.126
878.86, 3360.307
879.03, 3078.097
879.20, 3121.924
879.37, 3772.768
879.54, 4205.709
879.71, 3331.636
879.89, 3523.735
880.06, 4336.369
880.23, 4119.284
880.40, 3799.801
880.57, 3915.307
880.74, 4337.598
880.91, 4748.011
881.08, 4076.687
881.25, 4326.129
881.42, 4882.358
881.60, 4671.007
881.77, 4354.801
881.94, 4318.347
882.11, 4755.383
882.28, 4987.214
882.45, 4490.376
882.62, 4617.760
882.79, 5331.272
882.96, 5133.438
883.13, 4517.819
883.30, 4794.704
883.48, 5226.007
883.65, 5021.210
883.82, 4449.826
883.99, 4513.723
884.16, 5215.767
884.33, 4795.933
884.50, 4416.240
884.67, 4476.860
884.84, 4772.996
885.01, 4612.845
885.18, 4231.513
885.35, 4137.306
885.52, 4165.568
885.69, 4443.273
885.87, 3831.750
886.04, 3816.185
886.21, 4319.576
886.38, 4339.646
886.55, 3604.015
886.72, 3570.019
886.89, 4118.056
887.06, 3857.964
887.23, 3446.731
887.40, 3478.270
887.57, 3764.986
887.74, 3868.613
887.91, 3090.385
888.08, 3174.761
888.25, 3745.735
888.42, 3989.034
888.59, 3114.141
888.76, 3082.193
888.93, 3515.134
889.10, 3284.942
889.27, 3024.850
889.44, 3042.462
889.61, 3360.717
889.78, 3341.875
889.95, 3042.462
890.12, 3090.385
890.29, 3529.469
890.46, 3291.086
890.63, 2821.691
890.80, 2867.566
890.97, 3248.078
891.15, 3386.931
891.32, 2863.470
891.49, 2899.105
891.66, 3610.569
891.83, 3324.672
892.00, 2865.108
892.17, 2953.171
892.34, 3326.311
892.51, 3425.433
892.68, 2861.422
892.84, 2786.057
893.01, 3152.643
893.18, 3336.141
893.35, 2895.009
893.52, 2820.053
893.69, 3473.765
##END=
##END=   $$end of all blocks
